#   1 NUMBER                 Running object number                                     
#   2 MAG_APER               Fixed aperture magnitude vector                            [mag]
#   3 MAGERR_APER            RMS error vector for fixed aperture mag.                   [mag]
#   4 ALPHA_J2000            Right ascension of barycenter (J2000)                      [deg]
#   5 DELTA_J2000            Declination of barycenter (J2000)                          [deg]
         1  23.5310   0.4219 187.6912517 +12.3624162
         2  19.0404   0.0599 187.6974468 +12.3634037
         3  21.6173   0.1830 187.6870232 +12.3666454
         4  24.6564   0.6548 187.6956833 +12.3623724
         5  24.9116   0.7276 187.6867788 +12.3624869
         6  24.6683   0.6669 187.6906484 +12.3626829
         7  25.9236   1.1985 187.6957271 +12.3626083
         8  26.4938   1.4963 187.7005970 +12.3625846
         9  22.0641   0.2220 187.7137130 +12.3628661
        10  24.1513   0.5213 187.6878206 +12.3629292
        11  24.6304   0.6562 187.7044875 +12.3628856
        12  24.9619   0.8081 187.6966989 +12.3631023
        13  25.3090   0.9905 187.7161989 +12.3630778
        14  24.2735   0.5509 187.6985094 +12.3632046
        15  26.5341   1.5503 187.6824366 +12.3630324
        16  23.7264   0.4292 187.7169946 +12.3632588
        17  25.3091   0.9277 187.7161693 +12.3631698
        18  23.3913   0.3712 187.6913689 +12.3633316
        19  24.9609   0.7841 187.7100652 +12.3632246
        20  24.9488   0.7954 187.7121268 +12.3632493
        21  24.5129   0.6370 187.7085553 +12.3633522
        22  24.3799   1.2537 187.7113386 +12.3633628
        23  24.5488   0.6846 187.6956331 +12.3633297
        24  23.5999   0.4147 187.7163318 +12.3634651
        25  26.4786   1.5745 187.7056363 +12.3632574
        26  22.6348   0.2653 187.7393723 +12.3636296
        27  25.9280   1.1272 187.7145669 +12.3633197
        28  25.8269   1.2781 187.6922851 +12.3633817
        29  26.4257   1.5652 187.7101605 +12.3633560
        30  25.4640   1.0293 187.6977410 +12.3634884
        31  25.5859   1.1862 187.7046622 +12.3635042
        32  25.1863   0.9661 187.7293017 +12.3636046
        33  23.1152   0.3845 187.7231190 +12.3638043
        34  23.3079   0.3556 187.6949003 +12.3639434
        35  24.4045   0.5899 187.7116308 +12.3638571
        36  23.8008   0.4051 187.7020340 +12.3637999
        37  25.7241   1.2518 187.7297690 +12.3637745
        38  25.2526   0.8830 187.7053329 +12.3638626
        39  23.6488   0.4213 187.7134196 +12.3639826
        40  26.2919   1.5287 187.7405652 +12.3638533
        41  26.4636   1.4468 187.7273371 +12.3638530
        42  23.7029   0.4518 187.7275293 +12.3641860
        43  26.5883   1.7930 187.6823877 +12.3639763
        44  25.9014   1.2528 187.7013714 +12.3639728
        45  25.2135   0.8693 187.7328779 +12.3640190
        46  24.8538   0.7425 187.6834186 +12.3641531
        47  24.3529   0.6139 187.7257525 +12.3641328
        48  24.5099   0.6514 187.7322144 +12.3642055
        49  24.0930   0.5143 187.7201326 +12.3642300
        50  23.8888   0.4689 187.7143320 +12.3642462
        51  23.9236   0.4755 187.7064815 +12.3643265
        52  25.8181   1.1526 187.7074914 +12.3643039
        53  24.5245   0.6360 187.7152259 +12.3644126
        54  25.1675   0.8623 187.7169247 +12.3644636
        55  24.1772   0.5389 187.7037381 +12.3645158
        56  24.4570   0.6023 187.6935539 +12.3644792
        57  23.3196   0.6881 187.6948803 +12.3646479
        58  23.7597   0.4240 187.6873880 +12.3646044
        59  24.9566   1.0561 187.7139568 +12.3645432
        60  25.0942   0.9611 187.7025409 +12.3645119
        61  26.2108   1.6840 187.7122251 +12.3644895
        62  26.2315   1.4203 187.7170482 +12.3645309
        63  25.2641   0.8665 187.6844331 +12.3646421
        64  25.6586   1.1800 187.7128775 +12.3646873
        65  26.3023   1.6436 187.7345727 +12.3646407
        66  24.7218   0.6699 187.6971614 +12.3647846
        67  25.8223   1.2375 187.7124550 +12.3647637
        68  24.2123   0.5671 187.7331954 +12.3648554
        69  24.4758   0.6180 187.7002361 +12.3649147
        70  22.7474   0.2964 187.7038863 +12.3655073
        71  25.3079   0.9016 187.7273998 +12.3650241
        72  26.1440   1.5398 187.7048178 +12.3649580
        73  25.0710   0.7906 187.6982437 +12.3650592
        74  24.1866   0.5813 187.7309531 +12.3653334
        75  26.1860   1.3523 187.6912269 +12.3652122
        76  24.6435   0.7526 187.7139250 +12.3653525
        77  24.9646   0.8000 187.7147846 +12.3653535
        78  26.9961   1.8358 187.7014173 +12.3652511
        79  26.4641   1.6639 187.7369828 +12.3653041
        80  25.4094   1.1510 187.7130569 +12.3653804
        81  25.0349   0.8081 187.7205171 +12.3656136
        82  23.7279   2.1502 187.7409466 +12.3657886
        83  22.1064   0.2136 187.7376893 +12.3659081
        84  26.0323   1.3194 187.6865544 +12.3656679
        85  26.6963   1.8045 187.7074564 +12.3656488
        86  26.1728   1.3941 187.7225529 +12.3657583
        87  22.7758   0.2746 187.6958147 +12.3660135
        88  26.5527   1.7751 187.7285087 +12.3659236
        89  26.5271   1.6204 187.7320468 +12.3659286
        90  25.6539   1.3286 187.7106802 +12.3660322
        91  24.4948   0.6111 187.7122917 +12.3660890
        92  24.6028   0.6638 187.7026897 +12.3661712
        93  25.0895   0.8069 187.6934108 +12.3661961
        94  25.5220   1.1140 187.6855535 +12.3662300
        95  24.7548   0.6800 187.7085612 +12.3662467
        96  24.9402   0.7881 187.7323279 +12.3664408
        97  24.9830   0.9088 187.7014770 +12.3663788
        98  24.7606   0.7044 187.7340610 +12.3664762
        99  25.5681   1.0183 187.7034693 +12.3665053
       100  24.6605   0.7051 187.7348024 +12.3666256
       101  23.8186   0.4470 187.7161660 +12.3666326
       102  24.3963   0.5923 187.7131529 +12.3665692
       103  26.5842   1.8652 187.7201553 +12.3665259
       104  24.3010   0.5676 187.6996122 +12.3666527
       105  26.1380   1.2967 187.6829293 +12.3665535
       106  23.5768   0.4434 187.7374952 +12.3667080
       107  24.7545   0.6953 187.7098697 +12.3667000
       108  24.6375   0.6707 187.7351979 +12.3668194
       109  25.4500   1.0018 187.7294393 +12.3668628
       110  25.4708   0.9535 187.6961314 +12.3668928
       111  26.0663   1.2603 187.7219247 +12.3668943
       112  25.4531   0.9315 187.6952407 +12.3670086
       113  25.9199   1.2379 187.7200254 +12.3670170
       114  25.1711   0.8743 187.7363202 +12.3670619
       115  26.5302   1.7354 187.7230584 +12.3670094
       116  26.0922   1.4950 187.6980866 +12.3670140
       117  22.6056   0.2533 187.6891749 +12.3673619
       118  25.1485   0.8351 187.7127509 +12.3671628
       119  26.5738   1.7254 187.7221772 +12.3671255
       120  24.1566   0.5288 187.7164138 +12.3673210
       121  25.3828   0.9020 187.7065503 +12.3672622
       122  26.0018   1.2960 187.7270103 +12.3672254
       123  26.5968   1.5692 187.7052248 +12.3672071
       124  25.0257   0.7477 187.6980687 +12.3673689
       125  25.5172   1.6894 187.6904824 +12.3673693
       126  25.3082   1.0432 187.7265117 +12.3674134
       127  25.6901   1.1661 187.7249172 +12.3674772
       128  25.9084   1.3214 187.7123223 +12.3674492
       129  23.7603   0.4558 187.7331919 +12.3676601
       130  26.5764   1.5716 187.7012316 +12.3674461
       131  26.1982   1.6561 187.7276005 +12.3674459
       132  25.3328   0.9131 187.7039998 +12.3676039
       133  26.6164   1.6067 187.7406731 +12.3675077
       134  26.5022   1.6726 187.7059260 +12.3676033
       135  25.4980   0.9716 187.7008409 +12.3677031
       136  26.6120   2.0816 187.7279723 +12.3677626
       137  25.1133   0.8547 187.7241715 +12.3678636
       138  24.5663   0.6656 187.7315057 +12.3679138
       139  26.4127   1.4695 187.7057956 +12.3678562
       140  22.5669   0.2415 187.7186997 +12.3680610
       141  25.9151   1.2916 187.7192924 +12.3679528
       142  25.6212   1.0005 187.7067008 +12.3679246
       143  25.0138   0.7760 187.7191287 +12.3680076
       144  26.5309   1.5887 187.6939133 +12.3679135
       145  25.5829   1.0555 187.7286913 +12.3680012
       146  26.1271   1.3504 187.7140358 +12.3679759
       147  24.2033   0.5424 187.7128698 +12.3681000
       148  24.5243   0.6372 187.6940067 +12.3680733
       149  21.9583   0.1956 187.7122495 +12.3683913
       150  25.8384   1.2436 187.7075131 +12.3681283
       151  25.8215   1.0719 187.6936185 +12.3680504
       152  25.0838   0.8001 187.7303026 +12.3681348
       153  24.8983   0.7590 187.7370823 +12.3681301
       154  26.4272   1.7901 187.7282504 +12.3681564
       155  26.3354   1.3948 187.7099284 +12.3680453
       156  24.2179   0.5481 187.6982826 +12.3682378
       157  25.7464   1.2024 187.7202350 +12.3681755
       158  24.8534   0.7670 187.7323843 +12.3683211
       159  24.4501   0.6141 187.7231903 +12.3683229
       160  26.3802   1.5223 187.7350710 +12.3682458
       161  25.9516   1.1961 187.7020849 +12.3682108
       162  24.9906   0.7742 187.7064590 +12.3683441
       163  23.9856   0.4957 187.7028474 +12.3684742
       164  25.7136   1.0970 187.7044395 +12.3684411
       165  26.6153   1.7253 187.7277717 +12.3684247
       166  24.5010   0.6246 187.7119141 +12.3685559
       167  25.7915   1.1029 187.7160818 +12.3684816
       168  23.6790   0.4412 187.7328559 +12.3686636
       169  24.1380   0.5523 187.7313080 +12.3686743
       170  26.0873   1.8277 187.7278441 +12.3685653
       171  22.6232   0.2723 187.7285002 +12.3688828
       172  24.9348   0.8505 187.7090689 +12.3686973
       173  26.4890   1.6952 187.7363818 +12.3686141
       174  26.4220   1.5857 187.7363596 +12.3686860
       175  25.4813   1.0302 187.7335792 +12.3687340
       176  26.3939   1.8601 187.7224003 +12.3686676
       177  23.9928   0.5110 187.7309247 +12.3689498
       178  25.2885   1.0103 187.6906809 +12.3688706
       179  26.5586   1.7934 187.7326305 +12.3687840
       180  24.3053   0.5854 187.7339808 +12.3689624
       181  25.8005   1.3504 187.7277646 +12.3688908
       182  26.4283   1.5155 187.7223751 +12.3688635
       183  24.5308   0.8193 187.7276947 +12.3689911
       184  24.3793   0.5779 187.7124322 +12.3690631
       185  24.9669   0.7533 187.7155058 +12.3690330
       186  26.3493   1.3854 187.7032345 +12.3691317
       187  26.0277   1.3289 187.7093303 +12.3691374
       188  25.7775   1.0900 187.6899280 +12.3691749
       189  23.7861   0.5536 187.6872538 +12.3693567
       190  25.5611   1.0391 187.6892814 +12.3693321
       191  26.7469   1.9572 187.7005631 +12.3692237
       192  23.2049   0.3655 187.6901216 +12.3701279
       193  26.2137   1.5348 187.6940429 +12.3692957
       194  23.4193   0.3664 187.6859829 +12.3694879
       195  23.8961   0.4621 187.7126085 +12.3694354
       196  25.7659   0.9915 187.6839452 +12.3693904
       197  22.8647   0.3033 187.7049060 +12.3697227
       198  24.6937   0.6645 187.7096950 +12.3695494
       199  23.3707   0.3718 187.7169824 +12.3697177
       200  26.3008   1.3918 187.6925258 +12.3694731
       201  26.1908   1.3781 187.6879185 +12.3695023
       202  24.2912   0.5629 187.6998130 +12.3696573
       203  26.5868   1.8727 187.7274638 +12.3695173
       204  24.0120   0.4945 187.7107449 +12.3696803
       205  25.3554   0.9202 187.7148354 +12.3696101
       206  26.0263   1.5930 187.7163609 +12.3699868
       207  26.3534   1.5973 187.6964921 +12.3695550
       208  24.2819   0.5526 187.7047824 +12.3697552
       209  25.0410   0.7807 187.7117360 +12.3696871
       210  25.0815   0.8174 187.7078544 +12.3697409
       211  25.3548   0.9269 187.7369115 +12.3696704
       212  25.4281   0.9658 187.7174576 +12.3696905
       213  24.9964   0.7964 187.7078602 +12.3698261
       214  24.3869   0.6553 187.7272684 +12.3698614
       215  24.9842   0.8247 187.7387585 +12.3698763
       216  24.2979   0.5408 187.6914998 +12.3698394
       217  26.6110   1.7163 187.6918283 +12.3697382
       218  25.5274   0.9979 187.7218293 +12.3698293
       219  23.4917   0.3989 187.7348441 +12.3699926
       220  25.6149   1.1512 187.7274736 +12.3698371
       221  26.3724   1.5356 187.7298776 +12.3698450
       222  25.2874   0.8820 187.7121813 +12.3698929
       223  25.9186   1.3216 187.7154916 +12.3700274
       224  24.8851   0.7602 187.7036839 +12.3700006
       225  25.2311   0.8506 187.6841697 +12.3700279
       226  25.1373   0.8425 187.7021855 +12.3700323
       227  25.2130   1.0294 187.7273650 +12.3699998
       228  25.8628   1.1292 187.6956127 +12.3699932
       229  25.7549   1.2239 187.6867212 +12.3699734
       230  24.4176   0.6285 187.7097354 +12.3701521
       231  23.7882   0.4638 187.7071773 +12.3702017
       232  25.7519   1.0821 187.7084254 +12.3700633
       233  26.3782   1.5203 187.7259997 +12.3700621
       234  23.8099   0.4936 187.7102968 +12.3702652
       235  25.4043   0.9427 187.7152134 +12.3701504
       236  25.6608   1.0636 187.7338316 +12.3701115
       237  26.3537   1.4470 187.7196395 +12.3701188
       238  26.5743   1.8381 187.6853124 +12.3700940
       239  26.1676   1.9195 187.7115181 +12.3700780
       240  26.2436   1.5674 187.7198369 +12.3701402
       241  25.2076   0.8340 187.6961848 +12.3702512
       242  24.7424   0.9359 187.7269910 +12.3713296
       243  24.9307   0.7475 187.7152607 +12.3703111
       244  26.2314   1.6289 187.7356988 +12.3704761
       245  26.9463   1.8574 187.7256318 +12.3702508
       246  18.3472   0.1237 187.7388548 +12.3738125
       247  23.4412   0.3790 187.6928584 +12.3705032
       248  24.3585   0.5790 187.7032627 +12.3704846
       249  26.5570   1.5545 187.7015365 +12.3704016
       250  26.2224   1.4388 187.7275587 +12.3706804
       251  26.2386   1.3807 187.7375951 +12.3704305
       252  24.3114   0.5726 187.7201702 +12.3705889
       253  23.2294   0.3364 187.6940550 +12.3707448
       254  26.5967   1.6606 187.6991318 +12.3705058
       255  24.4462   0.6260 187.7340080 +12.3707749
       256  26.2116   1.5226 187.7022246 +12.3707055
       257  25.5044   0.9914 187.7230263 +12.3708036
       258  25.6046   1.1450 187.7054662 +12.3708283
       259  22.4249   0.2308 187.7003878 +12.3711052
       260  24.5160   0.6347 187.7341917 +12.3709323
       261  25.6099   0.9980 187.6855571 +12.3708875
       262  26.3548   1.6675 187.7345176 +12.3708991
       263  25.3745   0.9105 187.6879048 +12.3709501
       264  26.2390   1.3094 187.7081710 +12.3708636
       265  23.4013   0.3668 187.7261797 +12.3710781
       266  26.0423   1.2376 187.6921248 +12.3709910
       267  25.7503   1.1150 187.6980473 +12.3710124
       268  24.7087   0.7423 187.7123961 +12.3711010
       269  24.5589   0.6631 187.7101448 +12.3712532
       270  25.0318   0.7673 187.7155198 +12.3711190
       271  26.3736   1.5169 187.7384856 +12.3710976
       272  24.5391   0.6275 187.6946313 +12.3712483
       273  23.0559   0.3227 187.7046183 +12.3715240
       274  24.5016   0.6867 187.6975124 +12.3716633
       275  25.1831   0.9297 187.7244421 +12.3713992
       276  26.4375   1.6289 187.7131063 +12.3713260
       277  25.9486   1.3577 187.7006272 +12.3713513
       278  25.1837   0.8389 187.7216580 +12.3714480
       279  24.9459   0.7579 187.7293644 +12.3714971
       280  25.0238   0.7657 187.6933842 +12.3715092
       281  23.1937   0.4148 187.7185979 +12.3716715
       282  24.2827   0.5601 187.7086977 +12.3715850
       283  24.0267   0.5065 187.6931954 +12.3716814
       284  26.6416   1.6272 187.7053052 +12.3715285
       285  25.9306   1.1989 187.7145481 +12.3715735
       286  24.9732   0.7373 187.6926807 +12.3716615
       287  25.7554   1.1087 187.7028946 +12.3716223
       288  22.5563   0.2574 187.7187731 +12.3720677
       289  25.9594   1.3298 187.7312741 +12.3717521
       290  24.6759   0.6402 187.6955518 +12.3718692
       291  26.4623   1.5357 187.7061132 +12.3718467
       292  23.1562   0.3309 187.7052583 +12.3721246
       293  26.2267   1.5244 187.7338723 +12.3720267
       294  26.5239   1.4933 187.7234009 +12.3719613
       295  24.5069   0.6154 187.7031518 +12.3721287
       296  24.8333   0.7216 187.7064749 +12.3721641
       297  25.8208   1.0845 187.6968029 +12.3720913
       298  26.7226   1.8772 187.7236919 +12.3720681
       299  26.0057   1.2714 187.7236281 +12.3721384
       300  26.6471   2.0648 187.7267054 +12.3720988
       301  24.3973   0.7208 187.7073645 +12.3722503
       302  25.1887   1.0055 187.7155449 +12.3721473
       303  23.1612   0.3344 187.7043112 +12.3723628
       304  25.7000   1.0487 187.6979646 +12.3722204
       305  23.4218   0.3814 187.7251923 +12.3724044
       306  26.5633   1.7708 187.7142397 +12.3721987
       307  23.8242   0.4541 187.7131766 +12.3724983
       308  24.8193   0.7093 187.6860024 +12.3724485
       309  23.1575   0.3229 187.6986611 +12.3725389
       310  26.5607   1.6369 187.6890036 +12.3723852
       311  26.7640   1.6652 187.6844251 +12.3724101
       312  23.5957   0.4009 187.6877848 +12.3726962
       313  26.3539   1.5034 187.7349451 +12.3725149
       314  25.5987   1.0035 187.7077719 +12.3726086
       315  26.3207   1.5876 187.7102803 +12.3726713
       316  23.5331   0.4132 187.7253133 +12.3728215
       317  22.3333   0.2274 187.7281520 +12.3728994
       318  24.2400   0.5490 187.7131339 +12.3727625
       319  24.7441   0.6888 187.7212499 +12.3727748
       320  25.8760   1.1459 187.7133112 +12.3727141
       321  23.6636   0.4303 187.6918506 +12.3729858
       322  24.4906   0.7371 187.7402858 +12.3734050
       323  25.3333   0.9943 187.7213919 +12.3729449
       324  22.8797   0.2930 187.7131913 +12.3732294
       325  26.5194   1.4656 187.6950452 +12.3729137
       326  23.0604   0.3073 187.6900358 +12.3731434
       327  26.3483   1.3999 187.7012801 +12.3729919
       328  25.2139   0.8849 187.6956277 +12.3731345
       329  25.2800   0.9752 187.6891261 +12.3730566
       330  26.8369   1.9992 187.6847997 +12.3730868
       331  23.5285   0.3965 187.6943403 +12.3733146
       332  24.3455   0.6051 187.7152465 +12.3733347
       333  24.1777   0.5340 187.7285349 +12.3733402
       334  25.0374   0.7790 187.6981102 +12.3733307
       335  23.0205   0.3087 187.7276842 +12.3734803
       336  24.0631   0.4970 187.6965393 +12.3734745
       337  25.6598   1.0277 187.7121124 +12.3734041
       338  25.3627   0.9934 187.7308117 +12.3734210
       339  26.4650   1.7810 187.7019180 +12.3733512
       340  26.4167   1.4927 187.6851478 +12.3734217
       341  22.7478   0.2807 187.7405998 +12.3736857
       342  24.3174   0.5620 187.6960026 +12.3735574
       343  26.1116   1.4296 187.6978080 +12.3735586
       344  24.3114   0.5979 187.7123882 +12.3737468
       345  23.9537   0.4804 187.7005054 +12.3738489
       346  24.4637   0.6059 187.7094037 +12.3737729
       347  24.7220   0.6738 187.7338007 +12.3737834
       348  21.9507   0.2025 187.7203769 +12.3742217
       349  24.2648   0.5740 187.7333236 +12.3739319
       350  25.8490   1.1394 187.7053959 +12.3738030
       351  26.6443   1.6381 187.7225458 +12.3737309
       352  26.6107   1.8033 187.7262009 +12.3738113
       353  24.4778   0.6016 187.6932833 +12.3740598
       354  25.7146   1.0537 187.7360054 +12.3739973
       355  26.1302   1.3072 187.6866328 +12.3740909
       356  22.0239   0.1969 187.7030796 +12.3744868
       357  24.0533   0.9329 187.7116559 +12.3742764
       358  26.7811   1.7619 187.7147503 +12.3740629
       359  25.8628   1.1660 187.7169065 +12.3741413
       360  25.9189   1.8201 187.7236083 +12.3742227
       361  26.1837   1.4983 187.6884633 +12.3741974
       362  26.2216   1.3438 187.6895952 +12.3742052
       363  23.0680   0.3178 187.6948878 +12.3744887
       364  25.9593   1.3835 187.7075999 +12.3742493
       365  24.0478   0.5221 187.7271282 +12.3744690
       366  25.2252   1.0325 187.7325794 +12.3743770
       367  24.4662   0.6245 187.7316361 +12.3745573
       368  26.4113   1.8503 187.7367865 +12.3744330
       369  25.7351   1.1193 187.7181885 +12.3745041
       370  26.5214   1.7600 187.6941293 +12.3744890
       371  26.7027   1.7630 187.7266337 +12.3745015
       372  23.2883   0.3490 187.6846695 +12.3748367
       373  26.6035   1.5814 187.6925857 +12.3745327
       374  26.2409   1.6259 187.7094536 +12.3746198
       375  24.6882   0.8117 187.7235897 +12.3746189
       376  26.6048   1.8160 187.7083458 +12.3745899
       377  24.7184   0.6809 187.6843433 +12.3747516
       378  25.2939   1.0173 187.7346093 +12.3760754
       379  24.5072   0.6261 187.7282975 +12.3748323
       380  23.3225   0.3507 187.6969162 +12.3749777
       381  25.1794   0.8671 187.7202249 +12.3748392
       382  25.6139   1.0464 187.7201159 +12.3748496
       383  25.7690   1.0831 187.7136535 +12.3748534
       384  25.0939   0.9199 187.7073452 +12.3748976
       385  26.4161   1.5280 187.7010135 +12.3748629
       386  26.4900   1.5714 187.7107602 +12.3748887
       387  26.1399   1.2755 187.7004952 +12.3749575
       388  26.5225   1.5506 187.6971607 +12.3749181
       389  23.7070   0.4140 187.6890419 +12.3751277
       390  25.9432   1.2690 187.6987977 +12.3750662
       391  25.1590   0.8078 187.6871478 +12.3750877
       392  25.9098   1.1613 187.6899060 +12.3750489
       393  24.2021   0.5348 187.6939223 +12.3751646
       394  25.5896   1.2195 187.7259309 +12.3751121
       395  26.7579   1.9884 187.7168728 +12.3750408
       396  24.5624   0.6356 187.6955521 +12.3752067
       397  24.9818   0.7576 187.6955109 +12.3751543
       398  25.8253   1.2007 187.7070713 +12.3751889
       399  25.8416   1.3188 187.6935831 +12.3751674
       400  26.5827   1.8046 187.7268291 +12.3750984
       401  25.7663   1.1443 187.7057075 +12.3752273
       402  25.3815   1.2451 187.7253071 +12.3751679
       403  26.5832   1.6076 187.7009339 +12.3751938
       404  24.8951   0.7340 187.7013356 +12.3753627
       405  25.0219   0.7752 187.7301185 +12.3753438
       406  25.7716   1.1206 187.6940450 +12.3753782
       407  22.5264   0.2554 187.7241461 +12.3757986
       408  24.6703   0.6304 187.7036278 +12.3754259
       409  22.7793   0.2794 187.6869517 +12.3757509
       410  24.4055   0.7815 187.7269029 +12.3755506
       411  26.5470   1.4833 187.6939012 +12.3754453
       412  24.3311   0.5711 187.6889608 +12.3756076
       413  25.1356   0.8215 187.7082464 +12.3755786
       414  25.6641   1.0950 187.7331537 +12.3755453
       415  26.2863   1.7316 187.7350028 +12.3759262
       416  25.3417   0.9231 187.7336521 +12.3755579
       417  23.1963   0.3524 187.7239424 +12.3757504
       418  23.2864   0.3593 187.7228185 +12.3758009
       419  25.3172   0.9208 187.6930838 +12.3756703
       420  22.2959   0.2327 187.7054464 +12.3759003
       421  26.3838   1.4802 187.6967615 +12.3756143
       422  24.4720   0.6139 187.6836548 +12.3757693
       423  24.7235   0.6826 187.7026462 +12.3757358
       424  26.2590   1.5345 187.6934468 +12.3756410
       425  26.4460   1.6500 187.7169863 +12.3756408
       426  26.5989   1.7427 187.6939180 +12.3756686
       427  25.7400   1.0924 187.7062996 +12.3758176
       428  24.4305   0.6995 187.7107230 +12.3758276
       429  24.1477   0.5505 187.7334007 +12.3759241
       430  25.6611   1.0747 187.7153091 +12.3758592
       431  23.8866   0.5047 187.7156840 +12.3761679
       432  24.1164   0.5324 187.7314885 +12.3760919
       433  24.1480   0.5164 187.6845952 +12.3760493
       434  24.5781   0.6414 187.7054640 +12.3759891
       435  25.7450   1.3752 187.7146643 +12.3759417
       436  24.1939   0.5191 187.6944102 +12.3760936
       437  24.6654   0.6646 187.7067281 +12.3760973
       438  24.9244   0.7501 187.6884514 +12.3760253
       439  26.1396   1.4633 187.7360419 +12.3760853
       440  25.6516   1.1304 187.7081785 +12.3760301
       441  21.6222   0.1688 187.7300668 +12.3767346
       442  23.8195   0.4500 187.7020870 +12.3762156
       443  26.3500   1.4437 187.7023550 +12.3761333
       444  24.6744   0.6860 187.6885648 +12.3762189
       445  25.6115   1.1194 187.6933045 +12.3762677
       446  22.8849   0.2942 187.7088993 +12.3764778
       447  25.8235   1.3457 187.7126728 +12.3762447
       448  23.8051   0.4302 187.6924311 +12.3764141
       449  23.8449   0.4509 187.7249993 +12.3764386
       450  26.6328   1.8187 187.7255910 +12.3763281
       451  25.0292   0.7764 187.7297904 +12.3763801
       452  26.0626   1.4697 187.7072558 +12.3763438
       453  25.7292   0.9903 187.7024849 +12.3763713
       454  24.3452   0.5690 187.7036590 +12.3764745
       455  23.4270   0.3881 187.7298402 +12.3765862
       456  26.5308   1.6106 187.7094704 +12.3764004
       457  25.0497   0.8125 187.7118687 +12.3764481
       458  26.1246   1.3063 187.7103588 +12.3764137
       459  26.7655   2.1187 187.7254186 +12.3764545
       460  23.9001   0.4565 187.6892711 +12.3766828
       461  24.3989   0.6013 187.7204143 +12.3766615
       462  26.1424   1.5274 187.7103773 +12.3765819
       463  25.4173   0.9884 187.7330180 +12.3766492
       464  24.0297   0.7176 187.6958586 +12.3767590
       465  24.3358   0.5613 187.7075920 +12.3768132
       466  22.8729   0.2876 187.6940788 +12.3769757
       467  25.3508   1.0229 187.7055522 +12.3768253
       468  23.9591   0.4809 187.7054603 +12.3769229
       469  24.0875   0.5011 187.6907794 +12.3769624
       470  23.4753   0.3836 187.7060703 +12.3770197
       471  23.4354   0.3598 187.6935576 +12.3770148
       472  24.0376   0.4841 187.6988751 +12.3769807
       473  26.1449   1.2990 187.7383806 +12.3768968
       474  26.0718   1.4715 187.7213942 +12.3768817
       475  26.6964   1.8083 187.7153394 +12.3768880
       476  26.4991   1.5084 187.6947033 +12.3769435
       477  25.5730   1.0011 187.7042066 +12.3771113
       478  26.2461   1.7274 187.7389253 +12.3770675
       479  24.1882   0.5207 187.6946616 +12.3771876
       480  23.6856   0.3945 187.7372122 +12.3771591
       481  26.7317   1.9798 187.7252292 +12.3771146
       482  24.9364   0.7445 187.6999071 +12.3772041
       483  24.4910   0.8926 187.7094192 +12.3772192
       484  25.8238   1.0887 187.6987906 +12.3772308
       485  24.6394   0.7763 187.6853580 +12.3772659
       486  24.9814   0.7871 187.7255536 +12.3774088
       487  22.4840   0.2468 187.7062881 +12.3776143
       488  25.3076   0.9196 187.7130241 +12.3773518
       489  24.2777   0.5691 187.7180064 +12.3775298
       490  22.2683   0.2162 187.6963787 +12.3778430
       491  26.0926   1.2854 187.7136626 +12.3775233
       492  26.0604   1.2634 187.7176671 +12.3775854
       493  24.1479   0.5093 187.7060751 +12.3777151
       494  24.6699   0.6796 187.6921938 +12.3777455
       495  23.4651   0.3973 187.7410732 +12.3778973
       496  24.5653   0.6218 187.6954351 +12.3778184
       497  22.7381   0.2670 187.6962484 +12.3779417
       498  25.0868   0.8129 187.7023535 +12.3778180
       499  25.9205   1.2510 187.7222046 +12.3777108
       500  24.8536   0.7072 187.6935372 +12.3778701
       501  23.0369   0.3134 187.7179587 +12.3780526
       502  26.4910   1.5253 187.7274479 +12.3778071
       503  26.5305   1.6016 187.7160783 +12.3778093
       504  25.0237   0.7611 187.6838038 +12.3778744
       505  26.6137   1.8671 187.7184142 +12.3778237
       506  25.7399   1.3547 187.7291739 +12.3779379
       507  26.6110   1.7336 187.7251778 +12.3778390
       508  26.4212   1.6967 187.7127216 +12.3778447
       509  23.8568   0.4620 187.7186483 +12.3788634
       510  24.4321   0.6088 187.7343810 +12.3780345
       511  23.5454   0.4358 187.7290448 +12.3780502
       512  25.0625   0.8598 187.7184570 +12.3779409
       513  26.0377   1.2608 187.6895226 +12.3779880
       514  24.8911   0.7264 187.6899371 +12.3780008
       515  25.0981   0.7721 187.7041501 +12.3780635
       516  22.8967   0.2900 187.7126161 +12.3782341
       517  22.2038   0.2132 187.7008051 +12.3783546
       518  24.8573   0.7306 187.7221932 +12.3781211
       519  23.3022   0.3291 187.6996443 +12.3782164
       520  26.5965   1.7271 187.6895854 +12.3780933
       521  24.9808   0.7718 187.7093922 +12.3782165
       522  26.3378   1.4579 187.7323870 +12.3781398
       523  23.9877   0.5180 187.7259127 +12.3783067
       524  24.4173   0.6167 187.7337475 +12.3782890
       525  26.1882   1.3911 187.6984418 +12.3781895
       526  25.3478   0.9631 187.6990357 +12.3782977
       527  25.3479   0.9015 187.7183091 +12.3783102
       528  23.9014   0.4636 187.7072571 +12.3784123
       529  24.9765   0.7539 187.6947905 +12.3783565
       530  25.1165   0.8250 187.7066346 +12.3783526
       531  22.4096   0.2403 187.7257752 +12.3786401
       532  26.0381   1.2683 187.7121461 +12.3783122
       533  25.1864   0.8124 187.6902786 +12.3783843
       534  22.1137   0.1970 187.6993023 +12.3786330
       535  22.1477   0.2099 187.7049649 +12.3785977
       536  24.0979   0.5184 187.7217484 +12.3784592
       537  24.2346   0.5442 187.7131434 +12.3785104
       538  25.3987   1.0228 187.7249532 +12.3784218
       539  26.3743   1.5441 187.7124810 +12.3784430
       540  25.1408   0.8639 187.6962673 +12.3784521
       541  23.4603   0.3670 187.6850680 +12.3786165
       542  26.6739   1.7709 187.6930176 +12.3785036
       543  26.0055   1.2515 187.7245430 +12.3785785
       544  23.8415   0.4429 187.6909513 +12.3787922
       545  24.3099   0.5517 187.6899369 +12.3787212
       546  25.2153   0.8534 187.7034179 +12.3787013
       547  25.6930   1.0684 187.7032934 +12.3786813
       548  24.4791   0.6304 187.7245132 +12.3787704
       549  22.8649   0.2859 187.7019427 +12.3788699
       550  26.3149   1.4206 187.7019009 +12.3786267
       551  24.3447   0.6300 187.7028131 +12.3789549
       552  25.6270   1.2090 187.7160335 +12.3786816
       553  25.9108   1.1686 187.6953049 +12.3787309
       554  25.1061   0.8451 187.7045827 +12.3787812
       555  23.2243   0.3335 187.7075456 +12.3788939
       556  25.1430   0.8392 187.7264242 +12.3788413
       557  23.3224   0.3660 187.7367818 +12.3790847
       558  24.6919   0.6600 187.7268056 +12.3788968
       559  25.9851   1.6987 187.7248307 +12.3788981
       560  24.9824   0.7744 187.7275830 +12.3789081
       561  23.5058   0.4346 187.6955403 +12.3791165
       562  26.4571   1.6256 187.7029976 +12.3789073
       563  26.1918   1.4954 187.7247101 +12.3789083
       564  26.7710   1.7928 187.7207459 +12.3788880
       565  25.7402   1.0960 187.6961418 +12.3790069
       566  25.6871   1.1125 187.7098150 +12.3789881
       567  24.8423   0.7801 187.7175781 +12.3790759
       568  22.6214   0.2640 187.7093908 +12.3792444
       569  25.5384   0.9683 187.7109129 +12.3790466
       570  23.4465   0.4205 187.6928425 +12.3791495
       571  24.9837   0.8616 187.7143682 +12.3792859
       572  24.7766   0.6824 187.7110495 +12.3791437
       573  26.5770   1.6939 187.7371183 +12.3790378
       574  22.5821   0.4233 187.6992751 +12.3793811
       575  26.5885   1.8819 187.7370064 +12.3790814
       576  22.9787   0.2991 187.6962042 +12.3793351
       577  24.2249   0.5665 187.7072411 +12.3793074
       578  23.9679   0.4822 187.7012923 +12.3793368
       579  24.0867   1.3637 187.6975699 +12.3792040
       580  23.6778   0.4097 187.7081375 +12.3793403
       581  25.4760   0.9818 187.7158660 +12.3792364
       582  25.0278   0.9174 187.7401133 +12.3792127
       583  26.2271   1.4660 187.6857760 +12.3792593
       584  25.2403   0.9815 187.7140999 +12.3792652
       585  26.4441   1.5245 187.7371355 +12.3792510
       586  24.2937   0.6297 187.7009831 +12.3794754
       587  24.9014   0.8282 187.7191397 +12.3793619
       588  27.2775   2.8695 187.7061153 +12.3877852
       589  24.8298   0.7255 187.7358434 +12.3793778
       590  26.3524   1.6386 187.6899999 +12.3795105
       591  26.1783   1.2530 187.6914121 +12.3793833
       592  24.0162   0.4899 187.7069928 +12.3794915
       593  25.4901   0.9733 187.7034122 +12.3794733
       594  22.6323   0.2530 187.6884063 +12.3797589
       595  24.0030   0.5337 187.7385895 +12.3796109
       596  24.2237   0.5985 187.7045572 +12.3796010
       597  22.5536   0.2683 187.7161540 +12.3798247
       598  22.4025   0.2270 187.6877381 +12.3797833
       599  26.0120   1.3463 187.7315193 +12.3796301
       600  25.3095   0.9819 187.7212186 +12.3796408
       601  25.5542   1.0142 187.6995989 +12.3796689
       602  25.4076   0.9281 187.7352663 +12.3796811
       603  26.1690   1.4240 187.7323058 +12.3797994
       604  25.9676   1.2339 187.6869495 +12.3797388
       605  26.4955   1.6732 187.7070486 +12.3797363
       606  24.4418   0.5962 187.6845242 +12.3798209
       607  24.4479   0.6020 187.7178839 +12.3798595
       608  23.5065   0.3806 187.6991041 +12.3798993
       609  25.9446   1.1117 187.6863021 +12.3797519
       610  26.1801   1.2870 187.7132521 +12.3797502
       611  26.4654   1.5375 187.7258523 +12.3797644
       612  26.4818   1.6229 187.7275214 +12.3800068
       613  25.9588   1.1405 187.7230364 +12.3798290
       614  24.7815   0.7104 187.7108448 +12.3799378
       615  24.4785   0.6025 187.7014773 +12.3799794
       616  22.6301   0.2552 187.7042530 +12.3801283
       617  24.6713   0.6269 187.6993317 +12.3799532
       618  26.7859   1.8840 187.7204961 +12.3798156
       619  23.9072   0.4776 187.7314603 +12.3800383
       620  26.6694   1.6076 187.6898982 +12.3798759
       621  26.4790   1.5296 187.7049080 +12.3799284
       622  26.6570   1.7273 187.7278871 +12.3798936
       623  24.7204   0.7284 187.7247241 +12.3799382
       624  26.3792   1.6739 187.7276733 +12.3800140
       625  24.8368   0.6928 187.7135949 +12.3800319
       626  25.1635   0.8135 187.6893012 +12.3800031
       627  24.7762   0.7040 187.6965472 +12.3800737
       628  26.3004   1.7399 187.7316523 +12.3799841
       629  22.4303   0.2355 187.7053025 +12.3805590
       630  24.3144   0.5524 187.7047631 +12.3800659
       631  24.3739   0.6213 187.6946321 +12.3802220
       632  24.1619   0.5145 187.7004145 +12.3801921
       633  22.7960   0.2882 187.7359187 +12.3805304
       634  23.8399   0.4413 187.7086745 +12.3802970
       635  26.7593   1.9610 187.6838027 +12.3801376
       636  24.5690   0.6258 187.7177437 +12.3802881
       637  24.4451   0.5771 187.6918783 +12.3802226
       638  26.5136   1.5581 187.7384335 +12.3801802
       639  23.8169   0.4459 187.7161746 +12.3804067
       640  26.5268   1.5704 187.7067097 +12.3802110
       641  23.3146   0.3464 187.7142941 +12.3804108
       642  23.9831   0.4985 187.7388366 +12.3804853
       643  25.6189   1.0159 187.6983012 +12.3803488
       644  25.1900   0.8144 187.7098135 +12.3804119
       645  25.7152   1.0301 187.6994586 +12.3803462
       646  22.1148   0.2040 187.7018928 +12.3806012
       647  25.3130   1.0387 187.7243658 +12.3803558
       648  24.1301   0.5306 187.7126240 +12.3805575
       649  25.6240   1.1005 187.7174419 +12.3804322
       650  25.7446   1.0669 187.7223572 +12.3804578
       651  24.3774   0.5971 187.7231827 +12.3805425
       652  26.6220   1.5754 187.7002722 +12.3804173
       653  24.8578   0.7205 187.7340856 +12.3805651
       654  22.9320   0.3130 187.7399719 +12.3807369
       655  24.4705   0.5940 187.6845511 +12.3806092
       656  24.5385   0.6414 187.7295472 +12.3806107
       657  24.3005   0.5538 187.6972099 +12.3806358
       658  25.1980   0.9633 187.7242433 +12.3805949
       659  21.5289   0.1526 187.7124877 +12.3810795
       660  24.2589   0.5296 187.7016830 +12.3807361
       661  21.4452   0.1505 187.7090711 +12.3810822
       662  22.4292   0.2455 187.7308797 +12.3809220
       663  25.5731   1.2250 187.6967090 +12.3806982
       664  22.4604   0.2348 187.6947440 +12.3809472
       665  23.2500   0.3446 187.7139252 +12.3808921
       666  25.8572   1.2629 187.6971229 +12.3807478
       667  23.6038   0.3891 187.7026990 +12.3808973
       668  26.3762   1.4886 187.7194061 +12.3807190
       669  22.3331   0.2259 187.7161367 +12.3810741
       670  24.9676   0.7431 187.7045143 +12.3808382
       671  22.7109   0.2684 187.7086123 +12.3810312
       672  26.4837   1.5007 187.6833287 +12.3808016
       673  24.8794   0.8039 187.7082547 +12.3809873
       674  26.2624   1.4779 187.6827655 +12.3808389
       675  25.2680   0.8363 187.6831489 +12.3809823
       676  23.5387   0.3889 187.7196247 +12.3811327
       677  23.8447   0.4429 187.7057112 +12.3810379
       678  25.4906   1.0506 187.6843455 +12.3809332
       679  24.6482   0.7505 187.7049340 +12.3810572
       680  26.6708   1.6444 187.6976875 +12.3809150
       681  23.3060   0.3652 187.7388962 +12.3811729
       682  26.0192   1.5300 187.6880497 +12.3809594
       683  23.7356   0.4289 187.7230496 +12.3811465
       684  26.2965   1.4306 187.7221845 +12.3810203
       685  21.8424   0.2173 187.7012126 +12.3930863
       686  21.8924   0.2150 187.7023706 +12.3924916
       687  22.7367   0.4017 187.7090381 +12.3813347
       688  25.3658   0.9379 187.7079106 +12.3811260
       689  26.8353   1.7815 187.6950224 +12.3811009
       690  22.6347   0.2593 187.6975885 +12.3814752
       691  26.3136   1.5965 187.7298153 +12.3811926
       692  22.9480   0.2927 187.7129975 +12.3813553
       693  23.6830   0.4560 187.6845275 +12.3813508
       694  26.4989   1.4842 187.7072174 +12.3811826
       695  25.8575   1.1324 187.7132235 +12.3812588
       696  21.6955   0.1803 187.7097001 +12.3816461
       697  24.5655   0.6822 187.6927498 +12.3814053
       698  24.2599   0.5862 187.7327292 +12.3814423
       699  22.9829   0.3158 187.6859519 +12.3817043
       700  25.2385   0.8691 187.7072142 +12.3814159
       701  25.3512   0.9310 187.7313183 +12.3814248
       702  24.4573   0.5965 187.7107538 +12.3815447
       703  25.8827   1.1466 187.7374555 +12.3814526
       704  26.4947   1.4867 187.6891997 +12.3814149
       705  26.3196   1.4339 187.7052778 +12.3814347
       706  25.0799   0.8016 187.6976478 +12.3815641
       707  25.7102   1.0527 187.7088664 +12.3815455
       708  25.7464   1.2239 187.7279488 +12.3814726
       709  23.5909   0.4065 187.6969255 +12.3817764
       710  24.3060   0.6163 187.7080877 +12.3818324
       711  24.4224   0.6740 187.7302130 +12.3815888
       712  21.8927   0.1941 187.7254742 +12.3820137
       713  23.9550   0.4668 187.6962216 +12.3817026
       714  24.3246   0.5925 187.6926908 +12.3817383
       715  23.9195   0.4665 187.7018140 +12.3817127
       716  22.2292   0.2265 187.7058012 +12.3818907
       717  24.5578   0.6274 187.7142085 +12.3817393
       718  24.4737   0.6301 187.7135703 +12.3817288
       719  25.8486   1.3878 187.7247983 +12.3816331
       720  23.9245   0.4798 187.7381398 +12.3818090
       721  25.5798   1.0099 187.7249964 +12.3816392
       722  24.3081   0.5522 187.6939106 +12.3818258
       723  25.6138   1.1634 187.7390192 +12.3818418
       724  26.8656   1.8671 187.7040385 +12.3816851
       725  25.8844   1.1503 187.6924013 +12.3817359
       726  26.2876   1.6846 187.7098781 +12.3817304
       727  24.7403   0.6820 187.7310103 +12.3818269
       728  26.0093   1.4145 187.7391504 +12.3818738
       729  26.2191   1.5328 187.7391565 +12.3817947
       730  25.3526   0.9365 187.7218905 +12.3818208
       731  25.7794   1.4619 187.7230814 +12.3818349
       732  25.3940   0.9573 187.7400741 +12.3818806
       733  24.1394   0.5621 187.7269991 +12.3820635
       734  25.7804   1.0917 187.6949719 +12.3818917
       735  26.5930   1.8441 187.7238194 +12.3819245
       736  24.5879   0.6808 187.6964222 +12.3820713
       737  25.0362   0.7761 187.7143485 +12.3819648
       738  26.7909   1.7892 187.7111365 +12.3818738
       739  24.8816   0.7457 187.7371782 +12.3819836
       740  23.8357   0.4695 187.7412514 +12.3821280
       741  24.7855   0.6721 187.6845014 +12.3820499
       742  26.0859   2.1976 187.7160341 +12.3819786
       743  26.2412   1.4923 187.6990697 +12.3819804
       744  24.0361   0.5219 187.7097435 +12.3821753
       745  26.5058   1.6838 187.6901327 +12.3819897
       746  26.4871   2.4476 187.7175144 +12.3819669
       747  26.0778   1.3458 187.6884405 +12.3821968
       748  25.6416   1.0007 187.7167354 +12.3821062
       749  23.7176   0.4383 187.7284384 +12.3822958
       750  26.4535   1.7703 187.7238844 +12.3821577
       751  24.0592   0.4990 187.7085247 +12.3822708
       752  26.2462   1.3270 187.6983385 +12.3821467
       753  25.7607   1.0920 187.6980883 +12.3821632
       754  26.4912   1.6280 187.7009078 +12.3822700
       755  26.8401   1.7165 187.7170776 +12.3821521
       756  22.6407   0.2605 187.7084902 +12.3825018
       757  23.7398   0.4335 187.7023951 +12.3823573
       758  26.5628   1.6276 187.7026666 +12.3822004
       759  26.5355   1.7216 187.7066377 +12.3822347
       760  25.3095   0.8743 187.6985524 +12.3822815
       761  25.0179   0.7653 187.7205277 +12.3822803
       762  26.3641   1.4388 187.7209713 +12.3822119
       763  24.5419   0.6079 187.6890742 +12.3823500
       764  26.5280   1.5672 187.7178154 +12.3822102
       765  25.7715   1.0842 187.6993919 +12.3822929
       766  24.8031   0.7367 187.7356281 +12.3823464
       767  23.2404   0.3754 187.7306644 +12.3824964
       768  25.7715   1.1514 187.7206569 +12.3823268
       769  24.9797   0.7637 187.7175981 +12.3823706
       770  25.7153   1.3051 187.7236971 +12.3823652
       771  25.7031   1.0738 187.7091537 +12.3823303
       772  23.7462   0.4299 187.7088439 +12.3825032
       773  26.2211   1.5878 187.6879148 +12.3823214
       774  24.6937   0.7225 187.7377074 +12.3825836
       775  24.4774   0.6081 187.7161552 +12.3825105
       776  22.2106   0.2137 187.6947372 +12.3828739
       777  24.5654   0.6279 187.7020112 +12.3825640
       778  26.2575   1.5347 187.7196957 +12.3824311
       779  26.6531   1.8540 187.7009973 +12.3824324
       780  25.7864   1.1098 187.7221732 +12.3825132
       781  23.8279   0.4892 187.7222332 +12.3826471
       782  23.8796   0.4695 187.7143358 +12.3826681
       783  24.6528   0.6339 187.7141196 +12.3826330
       784  26.1433   1.6661 187.7201367 +12.3825459
       785  25.8995   1.1220 187.7049011 +12.3825972
       786  24.7237   0.7320 187.7006089 +12.3826753
       787  23.1202   0.3183 187.7054650 +12.3827734
       788  25.4369   0.9255 187.6960931 +12.3827137
       789  24.3559   0.5740 187.7096965 +12.3830562
       790  23.6521   0.4120 187.7029319 +12.3828636
       791  25.7899   1.2039 187.7240048 +12.3827675
       792  26.5364   1.7382 187.7161230 +12.3827186
       793  26.5420   1.4910 187.6875407 +12.3827460
       794  26.2165   1.4011 187.7250401 +12.3828032
       795  25.1325   0.8134 187.6903636 +12.3828469
       796  24.1353   0.4999 187.7025883 +12.3829641
       797  24.5636   0.6314 187.7111991 +12.3829359
       798  26.2660   1.6421 187.7231474 +12.3829047
       799  24.1036   0.4877 187.6832366 +12.3830091
       800  26.3302   1.4432 187.6975282 +12.3829219
       801  24.7657   0.6794 187.6994908 +12.3830199
       802  25.9435   1.1860 187.7102673 +12.3829497
       803  25.7583   1.0665 187.6904851 +12.3830509
       804  22.6681   0.2567 187.7358100 +12.3831488
       805  24.3835   0.5670 187.6974111 +12.3831248
       806  25.7286   1.0773 187.7094837 +12.3830719
       807  25.3778   1.0046 187.7302374 +12.3831169
       808  25.7311   1.0227 187.6998174 +12.3831354
       809  24.6180   0.6604 187.7368458 +12.3832466
       810  26.1133   1.3806 187.7107778 +12.3831658
       811  26.6150   1.6957 187.7036869 +12.3831741
       812  24.3073   0.5782 187.7048565 +12.3832948
       813  22.8998   0.2943 187.7150259 +12.3834812
       814  25.0793   0.7559 187.7016019 +12.3832839
       815  23.3965   0.3667 187.7154813 +12.3833724
       816  25.1376   1.0184 187.7141784 +12.3832783
       817  25.4488   0.9558 187.7106150 +12.3833205
       818  24.1600   0.5113 187.6925166 +12.3833517
       819  22.0447   0.1909 187.6934627 +12.3835387
       820  23.3661   0.3707 187.7286451 +12.3834465
       821  26.5735   1.6997 187.6981324 +12.3832028
       822  24.0369   0.4896 187.6983810 +12.3833905
       823  26.6436   2.0362 187.7087480 +12.3833598
       824  26.5712   1.5517 187.6852641 +12.3832932
       825  26.4272   1.6578 187.7006506 +12.3833087
       826  26.7254   1.6644 187.7208099 +12.3833402
       827  24.7635   0.6517 187.6884389 +12.3834813
       828  23.9975   0.4849 187.6966943 +12.3835676
       829  24.0664   0.4943 187.7328055 +12.3835331
       830  22.5584   0.2505 187.7088530 +12.3837190
       831  24.1714   0.5707 187.7093414 +12.3834942
       832  26.7985   1.8372 187.7053406 +12.3834880
       833  23.5975   0.4004 187.7019998 +12.3837192
       834  26.1139   1.3769 187.7169028 +12.3835554
       835  26.6607   1.8400 187.7094549 +12.3836158
       836  25.8621   1.2303 187.7043290 +12.3837352
       837  25.8981   1.3447 187.7177149 +12.3838151
       838  26.2457   1.3901 187.7142026 +12.3836830
       839  25.2027   0.8231 187.6881382 +12.3837512
       840  26.3593   1.5519 187.7067020 +12.3836606
       841  24.5849   0.6403 187.6993978 +12.3839004
       842  22.6148   0.2387 187.6892689 +12.3839313
       843  26.8128   1.8189 187.7194521 +12.3837262
       844  24.9831   0.8185 187.7085631 +12.3838189
       845  26.0353   1.6599 187.7063767 +12.3838476
       846  26.2712   1.3321 187.7028654 +12.3838036
       847  26.8193   1.9058 187.7062594 +12.3837684
       848  26.2239   1.3130 187.7021913 +12.3838471
       849  26.1499   1.5204 187.7017747 +12.3838780
       850  23.4268   0.3931 187.7052129 +12.3840205
       851  25.8285   1.1576 187.7092426 +12.3838739
       852  25.6104   0.9892 187.6910797 +12.3839072
       853  23.4832   0.3820 187.7188994 +12.3841226
       854  24.3668   0.5819 187.7088622 +12.3841494
       855  22.5484   0.2479 187.7270003 +12.3841471
       856  26.3992   1.8135 187.7232437 +12.3839001
       857  23.6505   0.4129 187.6884593 +12.3841066
       858  24.0617   0.4887 187.6863363 +12.3840671
       859  26.4656   1.5720 187.7061790 +12.3839675
       860  26.1725   1.9091 187.7082146 +12.3839280
       861  22.7380   0.2641 187.6863183 +12.3842543
       862  26.3458   1.6381 187.7022310 +12.3839898
       863  26.0238   1.2483 187.7189795 +12.3840311
       864  26.4533   1.4386 187.7168115 +12.3840016
       865  24.6568   0.6446 187.7051485 +12.3840701
       866  26.0101   1.2106 187.7244014 +12.3840473
       867  23.3165   0.3571 187.7122419 +12.3842513
       868  25.5213   0.9885 187.7002986 +12.3841123
       869  26.1257   1.2938 187.7352360 +12.3840580
       870  25.9905   1.2597 187.7109161 +12.3841048
       871  25.8439   1.1442 187.7075991 +12.3841023
       872  26.4718   1.9966 187.7141486 +12.3841438
       873  24.4253   0.5907 187.7345410 +12.3843148
       874  24.2435   0.5300 187.7168522 +12.3842885
       875  26.4831   1.6079 187.7079821 +12.3842057
       876  24.2044   0.5287 187.7065012 +12.3843815
       877  23.9013   0.4646 187.7056249 +12.3844586
       878  24.7549   0.7182 187.7370331 +12.3843882
       879  25.7121   1.1490 187.7144063 +12.3843202
       880  26.1755   1.2700 187.7208396 +12.3842658
       881  23.7412   0.4302 187.6964285 +12.3844377
       882  26.8500   1.7447 187.6997102 +12.3843908
       883  26.3732   1.6951 187.7025227 +12.3844723
       884  24.1001   0.5123 187.7053264 +12.3846181
       885  24.6874   0.6519 187.7046776 +12.3845657
       886  22.6829   0.2617 187.7087175 +12.3847754
       887  22.4702   0.2457 187.7386013 +12.3847929
       888  23.4136   0.3651 187.6999247 +12.3847630
       889  25.4541   0.9226 187.7082625 +12.3845735
       890  23.0740   0.3186 187.7106694 +12.3848000
       891  26.0198   1.3551 187.7110771 +12.3845681
       892  26.4244   1.4989 187.7020915 +12.3845300
       893  22.8849   0.2998 187.7055790 +12.3848485
       894  24.4549   0.6370 187.7302602 +12.3846627
       895  26.6510   1.6987 187.6846198 +12.3845471
       896  24.0384   0.5016 187.7278369 +12.3847199
       897  25.3233   0.8852 187.6934939 +12.3846822
       898  26.6462   1.7839 187.7230421 +12.3845764
       899  25.7559   1.0426 187.7123665 +12.3846695
       900  26.3800   1.7108 187.7297542 +12.3848611
       901  26.6776   1.7724 187.6919806 +12.3847095
       902  24.8510   0.7113 187.6933315 +12.3848483
       903  26.6523   1.6008 187.7146578 +12.3847045
       904  23.8846   0.4576 187.7047487 +12.3849115
       905  26.0079   1.2627 187.7156731 +12.3847676
       906  26.4864   1.9553 187.7061635 +12.3884032
       907  24.6247   0.6388 187.6960735 +12.3848965
       908  24.6579   0.6543 187.7058372 +12.3848926
       909  26.2709   1.6059 187.7296039 +12.3848208
       910  25.7152   1.0690 187.7014768 +12.3848308
       911  25.1724   0.8110 187.6951228 +12.3848355
       912  26.1889   1.2726 187.6987398 +12.3847815
       913  22.7752   0.2614 187.6875702 +12.3850914
       914  26.1045   2.2383 187.7058950 +12.3848695
       915  23.9818   0.4818 187.7190056 +12.3849439
       916  25.4766   1.1021 187.7229101 +12.3853470
       917  26.1218   1.3515 187.7148202 +12.3848880
       918  23.8053   0.4938 187.7198857 +12.3850565
       919  26.5695   1.8459 187.7152790 +12.3848884
       920  23.9168   0.4502 187.6907197 +12.3850672
       921  26.7443   1.9397 187.7075049 +12.3848707
       922  24.6945   0.6764 187.7068429 +12.3851025
       923  26.4835   1.5939 187.7316261 +12.3849729
       924  24.5757   0.6373 187.7187239 +12.3850949
       925  24.6231   0.6494 187.7182580 +12.3851597
       926  23.4338   0.3965 187.6965728 +12.3851979
       927  24.6017   0.6856 187.7053904 +12.3852557
       928  24.6892   0.6587 187.6990131 +12.3852010
       929  26.4336   1.4699 187.7088662 +12.3850524
       930  23.1695   0.3412 187.6939084 +12.3852667
       931  26.1241   1.5661 187.7164932 +12.3850732
       932  25.7959   1.0858 187.7136900 +12.3851346
       933  26.7170   1.9722 187.7077434 +12.3851846
       934  24.8076   0.7092 187.7259256 +12.3852285
       935  22.9704   0.3383 187.7405220 +12.3854502
       936  26.6790   1.7778 187.7080674 +12.3851320
       937  25.8907   1.2173 187.7044127 +12.3852033
       938  26.3815   1.4800 187.7064769 +12.3852185
       939  25.0853   0.7721 187.6999030 +12.3852529
       940  23.8519   0.4591 187.7104316 +12.3854696
       941  24.9274   0.7936 187.7393195 +12.3855505
       942  23.1898   0.3312 187.6859954 +12.3854440
       943  24.9685   0.7451 187.7021830 +12.3853552
       944  26.5801   1.6759 187.7067208 +12.3852671
       945  23.3831   0.4447 187.7055986 +12.3875086
       946  22.9431   0.2985 187.7356488 +12.3855762
       947  25.1324   0.8002 187.7183151 +12.3853590
       948  23.6719   0.4222 187.7140095 +12.3860000
       949  22.3224   0.2195 187.6895726 +12.3856612
       950  25.1231   0.8218 187.7130020 +12.3853731
       951  26.1196   1.3252 187.7060789 +12.3853578
       952  25.9659   1.2685 187.7175134 +12.3853596
       953  26.6988   1.6907 187.7084195 +12.3853630
       954  23.0933   0.3146 187.7045418 +12.3856031
       955  26.7370   1.9062 187.7074328 +12.3856269
       956  26.1143   1.3522 187.7039213 +12.3855626
       957  25.2502   0.9303 187.6958691 +12.3854557
       958  26.1315   1.3070 187.6978536 +12.3854600
       959  25.0216   0.7763 187.7104566 +12.3863513
       960  26.5217   1.8354 187.7400159 +12.3854829
       961  22.3921   0.2398 187.7130338 +12.3858883
       962  24.4624   0.5995 187.7109504 +12.3857265
       963  26.5200   1.6933 187.7227398 +12.3855944
       964  25.0708   0.7845 187.6990306 +12.3857132
       965  24.5667   0.6355 187.7345179 +12.3856789
       966  25.1850   0.8527 187.7377288 +12.3856383
       967  22.5921   0.2539 187.7100609 +12.3858318
       968  23.6804   0.4092 187.6952961 +12.3857961
       969  24.9577   0.7581 187.7316400 +12.3857067
       970  26.6994   1.7536 187.7063243 +12.3855627
       971  24.4221   0.5876 187.7048763 +12.3857546
       972  24.8027   0.7588 187.7238625 +12.3857573
       973  26.4684   1.6452 187.7061215 +12.3856896
       974  22.6887   0.2553 187.7023056 +12.3858963
       975  24.5161   0.8478 187.6835395 +12.3857638
       976  26.2616   1.4869 187.7023550 +12.3856900
       977  26.8299   2.2272 187.7079995 +12.3856563
       978  23.5478   0.3794 187.6907182 +12.3859254
       979  22.8663   0.2968 187.7260926 +12.3859070
       980  24.6823   1.2196 187.6846630 +12.3858060
       981  26.7101   2.1806 187.7072764 +12.3856592
       982  22.2404   0.2180 187.7087111 +12.3864288
       983  26.0793   1.3500 187.7094064 +12.3857724
       984  25.0299   0.7890 187.7338605 +12.3858212
       985  26.1190   1.3774 187.6879191 +12.3858228
       986  24.1849   0.5179 187.7088781 +12.3859419
       987  22.6874   0.2599 187.6970674 +12.3860382
       988  26.4435   1.5942 187.7015520 +12.3858621
       989  25.0091   0.7457 187.6841258 +12.3859274
       990  24.6701   0.6633 187.7205207 +12.3859815
       991  24.2228   0.5318 187.7004725 +12.3860545
       992  24.7568   0.6740 187.7004230 +12.3859773
       993  26.1886   1.7243 187.7067990 +12.3861810
       994  26.5093   1.7260 187.6959651 +12.3858891
       995  23.8126   0.4568 187.7210270 +12.3860777
       996  26.5919   1.7332 187.7061312 +12.3859016
       997  26.5625   1.7622 187.7097072 +12.3859827
       998  26.6755   1.7963 187.7008634 +12.3859303
       999  26.3271   1.4124 187.7265694 +12.3859341
      1000  26.5891   1.6622 187.7043598 +12.3859456
      1001  26.7633   1.7423 187.6998065 +12.3859577
      1002  25.2129   0.8582 187.7057554 +12.3860883
      1003  25.9073   1.4202 187.7056038 +12.3884696
      1004  25.1534   0.8395 187.7077324 +12.3861099
      1005  25.5630   1.0913 187.7227090 +12.3860484
      1006  26.2593   1.6459 187.7055850 +12.3860466
      1007  21.4565   0.1502 187.7024983 +12.3870038
      1008  25.9764   1.2389 187.7072203 +12.3860284
      1009  25.4365   1.0525 187.7125164 +12.3861357
      1010  25.6013   0.9875 187.7023460 +12.3860985
      1011  26.8367   2.1120 187.7062371 +12.3860987
      1012  24.3437   0.5718 187.7074323 +12.3864366
      1013  24.3976   0.5740 187.6904499 +12.3862140
      1014  26.8288   1.9833 187.7102542 +12.3860068
      1015  24.4846   0.5868 187.6985107 +12.3862414
      1016  25.0472   0.7791 187.7160812 +12.3861225
      1017  25.6513   1.0939 187.7064585 +12.3864132
      1018  24.4810   0.6087 187.7045773 +12.3862491
      1019  26.8745   2.2686 187.7120380 +12.3860156
      1020  23.7082   0.4240 187.7173732 +12.3863338
      1021  23.4341   0.3860 187.7278666 +12.3864500
      1022  23.2821   0.3389 187.7047216 +12.3872457
      1023  24.6431   0.6456 187.7053545 +12.3863198
      1024  25.1682   0.8356 187.7239918 +12.3862859
      1025  26.4332   1.6904 187.7288627 +12.3862500
      1026  26.5763   1.6057 187.6965911 +12.3862096
      1027  24.7535   0.6928 187.7002218 +12.3863513
      1028  23.7102   0.4077 187.6942307 +12.3864379
      1029  25.3845   0.8977 187.6839531 +12.3862942
      1030  26.2124   1.4197 187.7039597 +12.3863045
      1031  25.0798   0.8318 187.7020499 +12.3864154
      1032  25.1815   0.9418 187.7226334 +12.3863323
      1033  26.6459   1.7132 187.7068512 +12.3862434
      1034  26.3085   1.4030 187.7036584 +12.3865104
      1035  26.8038   2.1086 187.7058076 +12.3863346
      1036  26.3860   1.5243 187.7108504 +12.3863443
      1037  26.5875   1.6570 187.7071270 +12.3863315
      1038  26.6874   2.1546 187.7073035 +12.3866159
      1039  26.0002   1.2276 187.7145053 +12.3864190
      1040  26.6923   1.9050 187.7050606 +12.3864724
      1041  24.5532   0.6242 187.7014761 +12.3871617
      1042  23.6566   0.4076 187.6978444 +12.3866112
      1043  23.3765   0.3731 187.7395090 +12.3866158
      1044  26.4045   1.6490 187.7071640 +12.3864102
      1045  26.6690   1.8279 187.7096869 +12.3867965
      1046  24.8663   0.7333 187.7086538 +12.3865539
      1047  26.3873   1.6798 187.7066485 +12.3866124
      1048  26.4979   1.7524 187.7102086 +12.3864337
      1049  26.4328   1.7485 187.7224524 +12.3865773
      1050  26.4487   1.7012 187.7309407 +12.3864785
      1051  24.3942   0.6013 187.7304069 +12.3865942
      1052  25.9057   1.3647 187.7085708 +12.3864999
      1053  26.2038   1.3851 187.7004798 +12.3864977
      1054  26.6238   1.8972 187.7062326 +12.3865517
      1055  25.1699   0.8633 187.7101523 +12.3867834
      1056  26.5138   2.0384 187.7102945 +12.3867392
      1057  26.4309   1.7530 187.7069270 +12.3866176
      1058  26.4956   1.6077 187.7032514 +12.3865112
      1059  24.8161   0.7321 187.7406382 +12.3866281
      1060  26.6990   1.9221 187.7068745 +12.3864892
      1061  23.7837   0.4635 187.6982035 +12.3866726
      1062  24.5736   0.6092 187.6934854 +12.3866408
      1063  26.5384   1.6354 187.7104097 +12.3865498
      1064  26.5328   1.6018 187.7094223 +12.3865148
      1065  25.7160   1.2479 187.7061936 +12.3869989
      1066  26.3517   1.8234 187.7019833 +12.3866712
      1067  23.3761   0.3567 187.6895807 +12.3868434
      1068  26.5097   1.7082 187.7027211 +12.3867899
      1069  26.3027   1.7302 187.7072215 +12.3867796
      1070  24.3992   0.6379 187.7345187 +12.3866353
      1071  26.3838   1.8522 187.7056801 +12.3866044
      1072  26.4887   1.5667 187.7070423 +12.3867333
      1073  26.6495   1.7540 187.7030006 +12.3866045
      1074  26.5381   1.6238 187.7070850 +12.3867053
      1075  26.6228   1.8645 187.7023410 +12.3866872
      1076  24.4735   0.5956 187.6978464 +12.3868499
      1077  26.6962   2.0304 187.7018621 +12.3866685
      1078  26.5571   2.1051 187.7054199 +12.3867432
      1079  26.3119   1.5091 187.7066725 +12.3866805
      1080  26.1628   1.3933 187.7128335 +12.3866520
      1081  26.6755   1.6572 187.7071779 +12.3865902
      1082  26.3905   1.4683 187.7040110 +12.3866270
      1083  26.6002   1.6380 187.7095639 +12.3866268
      1084  23.8023   0.4291 187.6841908 +12.3868270
      1085  25.9338   1.6208 187.7074733 +12.3868285
      1086  26.7286   1.7695 187.7055290 +12.3866206
      1087  26.5854   1.8901 187.7019783 +12.3867945
      1088  24.3928   0.5878 187.7155222 +12.3868030
      1089  26.3236   1.6815 187.7098444 +12.3867038
      1090  26.5947   1.7869 187.7052123 +12.3875407
      1091  26.4365   1.5900 187.7092578 +12.3866812
      1092  26.6031   1.6304 187.7012251 +12.3866799
      1093  24.9233   0.8199 187.7376371 +12.3867663
      1094  26.3976   1.4812 187.7044922 +12.3867614
      1095  26.6098   1.6634 187.7195611 +12.3867233
      1096  22.3064   0.2251 187.7135373 +12.3875748
      1097  26.4416   1.5988 187.7023146 +12.3868790
      1098  26.4966   1.8700 187.7093200 +12.3867844
      1099  26.5060   1.7930 187.7028622 +12.3868873
      1100  26.5014   1.7051 187.7058760 +12.3868667
      1101  26.6617   1.8407 187.7091598 +12.3868037
      1102  26.8045   1.9348 187.7021210 +12.3867625
      1103  25.9873   1.4394 187.7065948 +12.3869305
      1104  26.5481   1.7119 187.7055438 +12.3868253
      1105  26.7944   1.7372 187.6993680 +12.3867927
      1106  23.3447   0.3511 187.6899237 +12.3870394
      1107  26.5745   1.6379 187.7022888 +12.3868040
      1108  25.9314   1.2319 187.6996850 +12.3868762
      1109  26.5021   1.6699 187.7030319 +12.3869187
      1110  26.6122   1.7556 187.7020803 +12.3868541
      1111  26.4670   1.7442 187.7018100 +12.3869674
      1112  26.1517   1.4471 187.7063078 +12.3874478
      1113  23.3749   0.3618 187.7086926 +12.3873245
      1114  25.8189   1.2241 187.7206459 +12.3868355
      1115  26.5802   1.7952 187.7072474 +12.3869963
      1116  26.7100   2.0893 187.7092451 +12.3869914
      1117  26.4910   2.1256 187.7100824 +12.3868902
      1118  26.6967   1.8402 187.7073366 +12.3868603
      1119  25.7119   1.0265 187.7045601 +12.3869104
      1120  26.3590   1.6289 187.7096108 +12.3875534
      1121  26.1713   1.5946 187.7104077 +12.3870682
      1122  26.4231   1.5122 187.7064913 +12.3868939
      1123  26.5198   1.8325 187.7095582 +12.3869396
      1124  26.4403   1.5044 187.7072719 +12.3868993
      1125  26.3672   1.4404 187.7184875 +12.3869011
      1126  26.5658   1.9137 187.7000840 +12.3870307
      1127  26.3805   1.7418 187.7073667 +12.3870259
      1128  26.4421   1.7448 187.7102355 +12.3871638
      1129  26.7302   1.7278 187.7053897 +12.3869288
      1130  26.5926   1.7084 187.7020874 +12.3870953
      1131  26.4815   1.9669 187.7054643 +12.3870080
      1132  25.9124   1.4754 187.7090680 +12.3873846
      1133  24.1485   0.5258 187.7254763 +12.3871013
      1134  26.5015   1.5999 187.7055755 +12.3869600
      1135  26.2599   1.5235 187.7064714 +12.3870767
      1136  24.4342   0.5873 187.7163952 +12.3870871
      1137  24.7181   0.6621 187.7009504 +12.3871588
      1138  23.8139   0.4444 187.6954628 +12.3871950
      1139  26.3931   1.6434 187.7076546 +12.3873224
      1140  23.2749   0.3401 187.6960541 +12.3872133
      1141  26.3208   1.5269 187.7082596 +12.3870988
      1142  25.9788   1.3943 187.7028683 +12.3870658
      1143  26.4342   1.6851 187.7053088 +12.3870002
      1144  26.5570   1.5792 187.7064010 +12.3869981
      1145  26.4704   1.5836 187.7057248 +12.3870501
      1146  26.2777   1.4769 187.7058138 +12.3870494
      1147  26.3810   1.5110 187.7100396 +12.3870468
      1148  26.3715   1.7872 187.7026862 +12.3872814
      1149  25.7005   1.0990 187.7031240 +12.3871769
      1150  26.3057   1.5757 187.7032043 +12.3870506
      1151  26.4407   1.6753 187.7069261 +12.3870987
      1152  26.4849   2.0758 187.7068900 +12.3870646
      1153  26.6155   1.7381 187.7036023 +12.3870306
      1154  26.3049   1.6532 187.7068507 +12.3871476
      1155  26.5912   1.7481 187.7036679 +12.3870733
      1156  26.3394   1.6764 187.7048227 +12.3871601
      1157  26.5550   1.5195 187.6904817 +12.3870470
      1158  26.5745   1.8837 187.7018261 +12.3870724
      1159  26.3267   1.7021 187.7097438 +12.3873790
      1160  26.4495   1.6751 187.7070425 +12.3873195
      1161  22.8304   0.2860 187.7310104 +12.3873078
      1162  26.3968   1.4878 187.7096455 +12.3872161
      1163  26.4074   1.5881 187.7099015 +12.3871576
      1164  26.5808   1.9091 187.7036891 +12.3871354
      1165  24.8504   0.6961 187.6972899 +12.3871569
      1166  26.6379   1.8415 187.7098195 +12.3870224
      1167  26.5173   1.6992 187.7027573 +12.3871290
      1168  26.2320   1.4943 187.7054850 +12.3872262
      1169  26.5683   1.7505 187.7030363 +12.3872179
      1170  26.0551   1.2998 187.7067649 +12.3871741
      1171  26.5005   1.6241 187.7103192 +12.3870991
      1172  26.4653   1.6876 187.7051352 +12.3872263
      1173  26.6544   1.5720 187.6993022 +12.3871090
      1174  26.8146   1.9655 187.7066378 +12.3870767
      1175  25.2648   0.8290 187.6918547 +12.3871843
      1176  25.4543   0.9532 187.6952878 +12.3871851
      1177  26.3031   1.6236 187.7095961 +12.3872689
      1178  26.4832   1.8107 187.7080003 +12.3871556
      1179  26.4741   1.6441 187.7093631 +12.3871291
      1180  26.7114   1.9706 187.7019905 +12.3873305
      1181  24.8805   0.7330 187.7057894 +12.3872340
      1182  26.2049   1.4724 187.7038766 +12.3872049
      1183  26.1069   1.4345 187.7055395 +12.3872277
      1184  26.3594   1.6077 187.7101647 +12.3871906
      1185  26.8502   2.3223 187.7032880 +12.3871875
      1186  26.5845   1.8139 187.7022455 +12.3872328
      1187  26.6562   1.8589 187.7062625 +12.3871635
      1188  26.4507   1.9256 187.7097965 +12.3873231
      1189  26.5614   1.8673 187.7029182 +12.3872981
      1190  26.4635   1.5293 187.7100099 +12.3872345
      1191  26.5694   1.7497 187.7032047 +12.3873850
      1192  26.5422   1.7206 187.7022483 +12.3873857
      1193  26.4844   1.6981 187.7096753 +12.3873499
      1194  26.4307   1.6403 187.7098727 +12.3873198
      1195  26.3993   1.7234 187.7074047 +12.3873194
      1196  26.0032   1.3821 187.7051031 +12.3875824
      1197  26.8622   2.0737 187.7017493 +12.3872936
      1198  26.4013   1.9031 187.7054333 +12.3877395
      1199  26.3977   1.5643 187.7061023 +12.3874521
      1200  26.4270   1.4867 187.7047648 +12.3873974
      1201  26.2201   1.6978 187.7061683 +12.3875710
      1202  26.3262   1.6107 187.7046295 +12.3874903
      1203  26.4136   1.8164 187.7024231 +12.3874182
      1204  26.4439   1.6105 187.7088412 +12.3874120
      1205  26.5269   1.7390 187.7177272 +12.3873043
      1206  26.5729   1.7709 187.7033054 +12.3872961
      1207  26.5908   1.8170 187.7099223 +12.3873790
      1208  26.7801   2.0206 187.7074221 +12.3874020
      1209  20.9009   0.1164 187.6978905 +12.3878790
      1210  26.4675   1.6437 187.7057687 +12.3873880
      1211  26.6662   1.7125 187.7093029 +12.3872875
      1212  23.1254   0.3392 187.6932404 +12.3876767
      1213  23.9663   0.4658 187.6875043 +12.3875372
      1214  24.2308   0.5646 187.7067104 +12.3878815
      1215  26.4191   1.6420 187.7033903 +12.3874048
      1216  26.6744   1.9201 187.7190708 +12.3873321
      1217  26.3711   1.5220 187.7058849 +12.3873362
      1218  26.3724   1.7119 187.7031521 +12.3874965
      1219  26.5350   1.6870 187.7048306 +12.3874831
      1220  26.6250   1.7950 187.7080601 +12.3873890
      1221  26.0481   1.3655 187.7021053 +12.3877939
      1222  22.1491   0.2071 187.7000338 +12.3877531
      1223  26.0519   1.5291 187.7042801 +12.3875420
      1224  26.3369   1.6205 187.7020418 +12.3874286
      1225  24.5998   0.6384 187.6991673 +12.3875053
      1226  26.2273   1.5597 187.7089213 +12.3875092
      1227  26.5260   1.7828 187.7029535 +12.3874027
      1228  26.5883   1.7583 187.7019401 +12.3875306
      1229  26.3981   1.6072 187.7073455 +12.3875331
      1230  25.0343   0.7594 187.6887785 +12.3874460
      1231  26.5035   1.9128 187.7054630 +12.3879024
      1232  26.2873   1.8630 187.7024038 +12.3874691
      1233  25.4581   0.9817 187.6996811 +12.3874980
      1234  26.2954   1.4836 187.7047336 +12.3875919
      1235  24.8919   0.7821 187.7223105 +12.3875778
      1236  25.3237   0.9215 187.7344947 +12.3874756
      1237  26.7477   1.8094 187.7081306 +12.3874543
      1238  26.4288   1.6580 187.7098622 +12.3874848
      1239  26.0047   1.3400 187.7051516 +12.3876443
      1240  26.6299   1.8544 187.7045407 +12.3874872
      1241  26.4446   1.9455 187.7036253 +12.3874560
      1242  26.3342   1.6047 187.7082832 +12.3875472
      1243  26.6409   1.5861 187.6984124 +12.3873845
      1244  26.1390   1.7057 187.7045025 +12.3878222
      1245  25.7104   1.0702 187.7107024 +12.3875000
      1246  26.6475   1.6990 187.7323085 +12.3874319
      1247  26.3073   1.6796 187.7086404 +12.3874768
      1248  24.3963   0.5820 187.7048110 +12.3880332
      1249  25.9917   1.3267 187.7071666 +12.3875924
      1250  26.3367   1.5379 187.7087172 +12.3874915
      1251  25.1899   0.8543 187.6992991 +12.3875296
      1252  22.5278   0.2573 187.7409326 +12.3878590
      1253  26.2607   1.6932 187.7056340 +12.3878107
      1254  26.3908   1.4782 187.7086890 +12.3875470
      1255  26.3652   1.4272 187.7069441 +12.3875343
      1256  26.5397   1.8395 187.7086219 +12.3876539
      1257  26.6495   2.0535 187.6858394 +12.3874883
      1258  26.2976   1.5732 187.7084043 +12.3876673
      1259  23.9105   0.4595 187.6890020 +12.3877043
      1260  26.1946   1.6210 187.7050539 +12.3877188
      1261  26.4637   1.6262 187.7073660 +12.3876567
      1262  26.2368   1.4129 187.7046104 +12.3876036
      1263  26.3062   1.8126 187.7043678 +12.3875682
      1264  24.4653   0.6048 187.7004285 +12.3876546
      1265  26.3511   1.7388 187.7070414 +12.3876725
      1266  26.5452   1.6138 187.7005649 +12.3875130
      1267  26.4216   1.7595 187.7081310 +12.3877013
      1268  26.5098   1.6619 187.7097946 +12.3875657
      1269  26.6961   2.3670 187.7065743 +12.3879794
      1270  26.3583   1.7107 187.7046446 +12.3877594
      1271  26.3799   1.4708 187.7037711 +12.3878943
      1272  26.3691   1.5577 187.6941093 +12.3875401
      1273  25.9177   1.3640 187.7055252 +12.3876724
      1274  26.5474   1.8024 187.7086042 +12.3877630
      1275  26.4083   1.6257 187.7084752 +12.3876849
      1276  26.7215   1.7027 187.7044798 +12.3875356
      1277  26.4690   1.8154 187.7043608 +12.3878359
      1278  24.1625   0.5256 187.7304274 +12.3877275
      1279  25.5880   1.0822 187.7055620 +12.3877273
      1280  26.5748   1.8203 187.7036188 +12.3875975
      1281  26.4963   1.7474 187.7022609 +12.3878035
      1282  26.4559   1.7260 187.7044274 +12.3876870
      1283  26.4083   1.6074 187.7019812 +12.3876111
      1284  26.2525   1.6061 187.7040878 +12.3878926
      1285  26.9023   1.9912 187.7040397 +12.3875917
      1286  24.2363   0.5398 187.6971842 +12.3878131
      1287  26.0731   1.2741 187.6930702 +12.3876764
      1288  26.4339   1.4962 187.7085067 +12.3878394
      1289  26.3318   1.6349 187.7069822 +12.3877622
      1290  26.2979   1.6531 187.7046777 +12.3879296
      1291  26.6591   1.9189 187.7052907 +12.3878643
      1292  26.3419   1.6339 187.7065714 +12.3877476
      1293  26.6597   1.5286 187.6946270 +12.3876847
      1294  26.1742   1.4532 187.7106581 +12.3876833
      1295  26.7204   1.7115 187.7166796 +12.3876847
      1296  26.4562   1.7167 187.7039587 +12.3879216
      1297  26.3575   1.4956 187.7085497 +12.3877983
      1298  26.4443   1.6359 187.7051725 +12.3877567
      1299  26.1927   1.5406 187.7047883 +12.3878931
      1300  26.6014   1.8705 187.7047792 +12.3882975
      1301  25.0476   0.7814 187.7008512 +12.3878492
      1302  26.2671   1.5230 187.7050683 +12.3878531
      1303  26.3350   1.5323 187.7161431 +12.3878363
      1304  26.1944   1.4488 187.7040948 +12.3878025
      1305  25.0931   0.8291 187.7125395 +12.3878845
      1306  26.4014   1.6640 187.7079898 +12.3880334
      1307  26.3132   1.4714 187.6899639 +12.3877945
      1308  24.3943   0.5554 187.6907086 +12.3878937
      1309  26.5543   1.6292 187.7086673 +12.3878416
      1310  26.4182   1.4632 187.7171570 +12.3878115
      1311  26.3105   1.6199 187.7071655 +12.3880108
      1312  26.2948   1.5892 187.7051959 +12.3879656
      1313  26.6612   1.7356 187.7072240 +12.3878284
      1314  26.4207   1.6603 187.7051186 +12.3880003
      1315  23.4163   0.3804 187.7374657 +12.3880890
      1316  26.1740   1.4460 187.7082097 +12.3880221
      1317  26.3551   1.5427 187.7044944 +12.3879454
      1318  26.4577   1.7012 187.7085056 +12.3879547
      1319  26.2620   1.4445 187.7037087 +12.3879145
      1320  21.3272   0.1352 187.6902160 +12.3882285
      1321  25.6996   1.0864 187.7042665 +12.3880511
      1322  26.2634   1.5829 187.7046598 +12.3881703
      1323  26.2071   1.4591 187.7048323 +12.3881562
      1324  25.4375   0.9586 187.7256575 +12.3879892
      1325  26.6050   1.6840 187.7020918 +12.3879939
      1326  26.4011   1.6652 187.7043590 +12.3879632
      1327  26.2375   1.4981 187.7041777 +12.3879703
      1328  26.5193   1.7144 187.7022266 +12.3879364
      1329  23.7348   0.4164 187.6905976 +12.3880912
      1330  26.7467   1.7730 187.7075039 +12.3878815
      1331  26.4455   1.6962 187.7099675 +12.3879708
      1332  27.0342   2.3696 187.7018554 +12.3880068
      1333  26.4125   1.5244 187.6879117 +12.3879307
      1334  22.9938   0.3016 187.6936240 +12.3881866
      1335  24.4697   0.6510 187.7141853 +12.3880957
      1336  26.7564   2.0198 187.7221364 +12.3880562
      1337  24.0797   0.5148 187.7262239 +12.3881245
      1338  26.1532   1.4945 187.7068930 +12.3881810
      1339  26.3236   1.5179 187.7045989 +12.3880329
      1340  26.4870   1.6771 187.7096844 +12.3881746
      1341  26.7087   1.8072 187.7076049 +12.3880787
      1342  25.3943   1.1234 187.7064490 +12.3889561
      1343  24.0935   0.5053 187.7076062 +12.3883545
      1344  26.3251   1.6387 187.7076898 +12.3881387
      1345  26.2895   1.4450 187.7051146 +12.3882474
      1346  26.5162   1.5484 187.7078101 +12.3880109
      1347  21.8084   0.1851 187.7295062 +12.3884904
      1348  26.4125   1.6626 187.7043470 +12.3880791
      1349  26.4788   1.6554 187.7077906 +12.3880478
      1350  26.2743   1.6475 187.7053513 +12.3882595
      1351  26.5532   1.7657 187.7106466 +12.3881685
      1352  26.4490   1.5987 187.7051583 +12.3881323
      1353  25.8925   1.1342 187.6975684 +12.3881069
      1354  26.5059   1.5462 187.7021073 +12.3881201
      1355  26.5263   1.8385 187.7098025 +12.3882017
      1356  26.0735   1.2643 187.7284898 +12.3881324
      1357  26.7566   1.7762 187.7022153 +12.3880653
      1358  26.3702   1.4165 187.7197903 +12.3881107
      1359  23.5739   0.4080 187.7138311 +12.3883648
      1360  26.5054   1.5888 187.7018170 +12.3882231
      1361  24.3006   0.5600 187.7249733 +12.3883031
      1362  26.5332   1.7949 187.7045194 +12.3882733
      1363  25.8929   1.0769 187.7104277 +12.3882024
      1364  22.5783   0.2502 187.6980931 +12.3884435
      1365  26.0482   1.3331 187.7079223 +12.3882684
      1366  23.2410   0.3738 187.7052439 +12.3889796
      1367  23.7492   0.4358 187.7295944 +12.3883800
      1368  22.6524   0.2721 187.7146405 +12.3884956
      1369  26.2418   1.5087 187.7045480 +12.3883930
      1370  26.3435   1.8190 187.7067854 +12.3882262
      1371  24.1784   0.5296 187.6977897 +12.3884644
      1372  23.6203   0.4057 187.6888802 +12.3883983
      1373  26.3620   1.5210 187.7075169 +12.3882381
      1374  26.7034   2.0695 187.7219583 +12.3882405
      1375  25.3547   1.0765 187.7151668 +12.3883491
      1376  26.2424   1.5733 187.7052444 +12.3883224
      1377  26.7329   1.8184 187.7011637 +12.3882165
      1378  26.3062   1.4984 187.7025566 +12.3884133
      1379  26.2753   1.4151 187.7024890 +12.3883713
      1380  26.6795   1.8458 187.7021336 +12.3883757
      1381  26.5911   1.7194 187.7023259 +12.3883224
      1382  26.2292   1.4126 187.7100308 +12.3883235
      1383  26.4640   1.5151 187.7022333 +12.3883650
      1384  26.8435   1.8920 187.6967889 +12.3883313
      1385  26.6130   1.7813 187.6995851 +12.3882989
      1386  26.1581   1.7460 187.7065959 +12.3888612
      1387  26.4323   1.8107 187.7015710 +12.3885006
      1388  26.4982   1.9620 187.7048662 +12.3884825
      1389  26.2780   1.8135 187.7022949 +12.3885325
      1390  24.8176   0.7145 187.7105161 +12.3885353
      1391  26.2928   1.4879 187.6849482 +12.3884215
      1392  26.0834   1.6708 187.7121362 +12.3884531
      1393  23.6559   0.4206 187.7368016 +12.3886384
      1394  26.1922   1.5420 187.7075688 +12.3885758
      1395  22.2569   0.2233 187.7382752 +12.3888128
      1396  24.3818   0.5936 187.7359293 +12.3885870
      1397  25.9132   1.3049 187.6978495 +12.3885145
      1398  25.6321   1.0552 187.7362106 +12.3885202
      1399  25.0903   0.7791 187.6945263 +12.3885455
      1400  26.5428   1.7176 187.7050191 +12.3885128
      1401  26.2261   1.5074 187.7076042 +12.3885179
      1402  25.9310   1.2314 187.7072269 +12.3885875
      1403  26.8556   2.3594 187.7013393 +12.3884992
      1404  26.4331   1.5865 187.7011903 +12.3887126
      1405  22.4724   0.2391 187.7159539 +12.3887768
      1406  25.3583   1.3728 187.7121340 +12.3885496
      1407  26.4472   1.4696 187.7373082 +12.3885101
      1408  26.2594   1.6975 187.7051784 +12.3886027
      1409  26.2123   1.5471 187.7096499 +12.3885632
      1410  25.9038   1.2690 187.7057532 +12.3888477
      1411  26.5711   1.5660 187.6943988 +12.3885943
      1412  26.6105   1.6136 187.7157268 +12.3885610
      1413  26.4558   1.5934 187.7046859 +12.3886128
      1414  26.4301   1.4975 187.7046464 +12.3885681
      1415  26.2487   1.5034 187.7051348 +12.3887106
      1416  23.5598   0.3918 187.6919454 +12.3887425
      1417  25.0395   0.7977 187.7364978 +12.3886774
      1418  25.4127   0.9368 187.7228729 +12.3886669
      1419  25.8649   2.6351 187.7121441 +12.3886426
      1420  23.9945   0.4924 187.7136491 +12.3888631
      1421  24.0486   0.4842 187.6999423 +12.3887684
      1422  26.7715   1.7052 187.7071213 +12.3885901
      1423  26.3663   1.4565 187.7127480 +12.3886427
      1424  25.4334   0.9257 187.7128037 +12.3887147
      1425  26.3053   1.5513 187.7022002 +12.3887441
      1426  26.2312   1.5748 187.7048551 +12.3887689
      1427  26.1144   1.4473 187.7056768 +12.3888656
      1428  24.9108   0.7036 187.6864935 +12.3887699
      1429  26.4439   1.6924 187.7047846 +12.3887416
      1430  24.0986   0.4903 187.6963887 +12.3888949
      1431  26.8343   2.1677 187.7018464 +12.3888283
      1432  24.3745   0.5833 187.7026022 +12.3888507
      1433  24.9711   0.8082 187.7163954 +12.3887527
      1434  26.4425   1.5894 187.7106988 +12.3887917
      1435  26.5408   1.7591 187.7198807 +12.3886988
      1436  26.2520   1.5615 187.7053403 +12.3887778
      1437  24.0076   0.5061 187.7236006 +12.3890092
      1438  26.5349   1.8368 187.7217671 +12.3889059
      1439  24.3852   0.6049 187.7297474 +12.3889009
      1440  24.9759   0.7843 187.7187612 +12.3888898
      1441  23.8224   0.4997 187.7294768 +12.3890294
      1442  26.2999   1.5217 187.7049161 +12.3887776
      1443  26.5583   1.5592 187.6891918 +12.3887491
      1444  26.2493   1.4587 187.7051649 +12.3888369
      1445  23.9645   0.4800 187.7155235 +12.3889570
      1446  24.0350   0.5770 187.7351977 +12.3890079
      1447  26.4890   1.6453 187.7015842 +12.3889474
      1448  24.0168   0.5178 187.7020456 +12.3894498
      1449  26.2098   1.4970 187.7053685 +12.3889225
      1450  24.2940   0.5411 187.6993154 +12.3890924
      1451  26.7924   1.7337 187.6959323 +12.3888514
      1452  26.8007   1.8220 187.7012226 +12.3888459
      1453  26.3200   1.6351 187.7058604 +12.3889619
      1454  26.4618   1.7360 187.7054655 +12.3889825
      1455  25.7612   1.1052 187.7067369 +12.3889109
      1456  26.2912   1.6259 187.7010467 +12.3889780
      1457  25.8965   1.2799 187.7059844 +12.3889496
      1458  24.7134   0.6678 187.6996364 +12.3890593
      1459  26.4519   1.7009 187.7056720 +12.3889614
      1460  26.5309   1.7144 187.7218309 +12.3891057
      1461  23.9666   0.4706 187.6918745 +12.3891179
      1462  25.7166   1.0879 187.7397892 +12.3890032
      1463  23.3599   0.3548 187.6956647 +12.3891943
      1464  26.2588   1.6600 187.7090479 +12.3890784
      1465  25.8672   1.1712 187.7143860 +12.3890813
      1466  25.3045   0.8762 187.7150987 +12.3890909
      1467  24.5829   0.6271 187.7160685 +12.3891363
      1468  22.7876   0.2669 187.6864231 +12.3892682
      1469  22.6390   0.2600 187.7322960 +12.3894106
      1470  23.1187   0.3279 187.7232943 +12.3892960
      1471  18.5620   0.1088 187.7059378 +12.3912102
      1472  25.9918   1.1951 187.7198049 +12.3890570
      1473  26.4153   1.6224 187.7103270 +12.3892670
      1474  24.2800   0.5575 187.6942446 +12.3892085
      1475  25.7607   1.0977 187.7275670 +12.3891186
      1476  24.5084   0.6181 187.7030239 +12.3895009
      1477  25.8698   1.0926 187.6975569 +12.3891342
      1478  25.3813   0.8950 187.6848947 +12.3891668
      1479  26.3239   1.4378 187.7109704 +12.3891451
      1480  24.6783   0.6857 187.7241711 +12.3892996
      1481  26.4230   1.7325 187.7216828 +12.3892091
      1482  26.5018   1.8732 187.7004854 +12.3899466
      1483  26.2389   1.4731 187.7066090 +12.3892737
      1484  25.1113   0.8175 187.7283871 +12.3892850
      1485  25.6452   1.6477 187.7000792 +12.3892186
      1486  26.6435   2.0580 187.7018265 +12.3893374
      1487  26.4523   1.4772 187.7151685 +12.3892222
      1488  26.2833   1.6838 187.7106363 +12.3892258
      1489  26.1343   1.4225 187.7029126 +12.3893730
      1490  25.9913   1.3994 187.7026111 +12.3896803
      1491  26.4284   1.7343 187.7021415 +12.3893642
      1492  24.0767   0.5199 187.7330267 +12.3894027
      1493  26.6161   1.7703 187.6882983 +12.3893097
      1494  24.5319   0.5992 187.6941883 +12.3894354
      1495  26.2006   1.4174 187.7026287 +12.3894083
      1496  25.5121   0.9518 187.7239606 +12.3893836
      1497  23.6045   0.4231 187.7344765 +12.3895047
      1498  21.9872   0.1838 187.7060207 +12.3895033
      1499  26.1939   1.3398 187.7087806 +12.3894329
      1500  23.1830   0.3274 187.7128812 +12.3901339
      1501  25.9595   1.3889 187.6950847 +12.3895903
      1502  26.2836   1.4323 187.7107357 +12.3895486
      1503  24.7889   0.7200 187.7031002 +12.3895635
      1504  25.4238   0.9320 187.7027026 +12.3897149
      1505  26.6035   1.6415 187.7238365 +12.3894053
      1506  25.0345   0.7891 187.7211935 +12.3894883
      1507  26.4676   1.5796 187.7146851 +12.3894199
      1508  25.9769   1.2232 187.7239464 +12.3894870
      1509  24.4973   0.6124 187.7167254 +12.3895410
      1510  25.1862   0.8555 187.7153446 +12.3895432
      1511  24.4633   0.6493 187.7328556 +12.3896026
      1512  23.5381   0.3811 187.6871302 +12.3896698
      1513  26.7010   1.9963 187.7217306 +12.3894624
      1514  24.0452   0.4962 187.7149151 +12.3896113
      1515  26.2240   1.5402 187.7009426 +12.3895551
      1516  25.9065   1.1368 187.7145656 +12.3895174
      1517  23.7393   0.4311 187.7085756 +12.3897422
      1518  26.6011   1.8310 187.7215739 +12.3895388
      1519  25.7868   1.0704 187.6931151 +12.3895672
      1520  26.4854   1.7132 187.7013943 +12.3895551
      1521  26.4902   1.6295 187.7101525 +12.3895300
      1522  26.1530   1.5573 187.7258610 +12.3895311
      1523  26.4862   1.6546 187.7103998 +12.3896822
      1524  22.0170   0.1875 187.6930018 +12.3898653
      1525  26.4528   1.8735 187.7091523 +12.3898886
      1526  25.7240   1.1919 187.7022927 +12.3896369
      1527  24.4365   0.6756 187.7027053 +12.3898517
      1528  26.2227   1.4302 187.7083807 +12.3896187
      1529  25.9863   1.5723 187.7019294 +12.3897397
      1530  26.3784   1.4409 187.7022196 +12.3896614
      1531  26.7541   1.6651 187.7233205 +12.3896432
      1532  26.4976   1.7281 187.7023424 +12.3897109
      1533  22.9355   0.2978 187.7112102 +12.3899683
      1534  26.3739   1.5598 187.7063960 +12.3896677
      1535  26.4771   1.8096 187.7216632 +12.3897594
      1536  26.5633   1.9434 187.7097389 +12.3905812
      1537  26.3494   1.5182 187.7251371 +12.3897062
      1538  26.3890   1.5043 187.7021234 +12.3897117
      1539  26.4286   1.5695 187.7098664 +12.3897656
      1540  26.2477   1.4081 187.7023325 +12.3898561
      1541  26.1898   1.5604 187.7082873 +12.3899943
      1542  25.3013   0.8788 187.7201966 +12.3898729
      1543  26.5711   1.7941 187.7214903 +12.3897954
      1544  25.8731   1.1566 187.6959883 +12.3898543
      1545  24.5977   0.6089 187.6838943 +12.3899234
      1546  23.2163   0.3283 187.7011777 +12.3902866
      1547  24.8006   0.7015 187.7247398 +12.3899700
      1548  26.7770   1.7156 187.7195889 +12.3898762
      1549  25.1706   0.8414 187.7252321 +12.3899847
      1550  22.4243   0.2269 187.6955356 +12.3902465
      1551  22.4524   0.2628 187.7036134 +12.3920377
      1552  26.3242   1.6718 187.7022839 +12.3900578
      1553  25.1053   0.8422 187.7406655 +12.3900319
      1554  24.4750   0.5975 187.7200964 +12.3901038
      1555  26.6905   1.8268 187.7130103 +12.3899770
      1556  26.7127   1.6951 187.7006567 +12.3899707
      1557  26.5349   1.8287 187.7214409 +12.3900112
      1558  26.3187   1.4967 187.7020557 +12.3900407
      1559  25.5841   1.0028 187.6970280 +12.3900686
      1560  24.1366   0.5479 187.7142180 +12.3901773
      1561  25.9309   1.3403 187.7199376 +12.3900493
      1562  23.5667   0.4035 187.7356626 +12.3902182
      1563  24.8303   0.7566 187.6861161 +12.3901524
      1564  23.8589   0.4407 187.6846231 +12.3901995
      1565  25.0274   0.7463 187.6836502 +12.3901466
      1566  25.5840   1.1095 187.6925656 +12.3901240
      1567  25.7444   1.0563 187.6897211 +12.3901398
      1568  25.2074   0.8773 187.7233815 +12.3901419
      1569  26.2030   1.6700 187.7093189 +12.3901739
      1570  24.4670   0.6328 187.6997959 +12.3902663
      1571  25.9818   1.2374 187.7254298 +12.3901321
      1572  25.1639   0.8877 187.7102508 +12.3903740
      1573  26.5374   1.6492 187.7092149 +12.3901720
      1574  26.3962   1.5794 187.7082726 +12.3902757
      1575  25.6782   1.0720 187.7112601 +12.3902650
      1576  24.5952   0.6467 187.7162776 +12.3903125
      1577  26.2237   1.4528 187.7101681 +12.3902927
      1578  24.9644   0.7687 187.7358744 +12.3903896
      1579  26.4379   1.6860 187.7093044 +12.3902921
      1580  23.5118   0.4372 187.7320024 +12.3904202
      1581  26.4029   1.7508 187.7081485 +12.3903724
      1582  26.4126   1.7493 187.7212003 +12.3908484
      1583  26.4293   1.7316 187.6890459 +12.3902977
      1584  26.4147   1.6306 187.7017522 +12.3903965
      1585  26.4385   1.5055 187.7113152 +12.3903208
      1586  24.1628   0.5276 187.7015296 +12.3905742
      1587  24.8801   0.7711 187.7010636 +12.3904700
      1588  26.1964   1.5140 187.7033592 +12.3904755
      1589  25.0498   0.7631 187.6906618 +12.3904441
      1590  23.1604   0.3620 187.6975112 +12.3906893
      1591  26.4830   1.6236 187.6998206 +12.3905020
      1592  25.8487   1.1063 187.7145785 +12.3905476
      1593  25.9545   1.3736 187.7150531 +12.3905670
      1594  24.9050   0.7021 187.6892800 +12.3906479
      1595  23.3193   0.3577 187.7269985 +12.3907814
      1596  24.9057   0.7959 187.7145079 +12.3907916
      1597  26.3147   1.4756 187.7093623 +12.3905864
      1598  22.4595   0.2328 187.6936077 +12.3909238
      1599  26.0804   1.3473 187.7090663 +12.3906332
      1600  26.2329   1.7340 187.7095656 +12.3906841
      1601  18.7170   0.0508 187.7057212 +12.3913034
      1602  23.0717   0.3219 187.7378979 +12.3908959
      1603  26.3392   1.4489 187.6925318 +12.3906554
      1604  24.5503   0.6187 187.6951572 +12.3907763
      1605  23.7034   0.4194 187.6857602 +12.3908869
      1606  26.7717   1.8180 187.7351204 +12.3906620
      1607  26.3256   1.4992 187.7089935 +12.3907418
      1608  25.9382   1.1997 187.7037254 +12.3908715
      1609  25.3781   0.9164 187.7305949 +12.3908046
      1610  26.0936   1.4552 187.7098220 +12.3908312
      1611  23.9228   0.4403 187.6880994 +12.3909522
      1612  26.7137   1.8485 187.7011236 +12.3907827
      1613  25.5575   2.9665 187.7207816 +12.3909213
      1614  22.7578   0.2807 187.7279694 +12.3910544
      1615  24.2502   0.5613 187.7168624 +12.3909613
      1616  24.7661   0.7190 187.7136398 +12.3909245
      1617  25.4032   1.0687 187.7026200 +12.3909281
      1618  22.8254   0.2809 187.7150452 +12.3913034
      1619  23.9291   0.5603 187.7044280 +12.3910070
      1620  26.3221   1.4498 187.6976751 +12.3909347
      1621  26.2950   1.4765 187.7089966 +12.3910277
      1622  25.3455   0.8664 187.6929201 +12.3909866
      1623  26.1890   1.5406 187.6989642 +12.3909698
      1624  21.9682   0.1865 187.6924626 +12.3913766
      1625  24.0014   0.4655 187.6931532 +12.3911019
      1626  24.8205   0.6801 187.7310453 +12.3910180
      1627  25.1471   0.8143 187.6936660 +12.3911074
      1628  24.6018   0.8464 187.7020894 +12.3910872
      1629  23.7225   0.4212 187.6984539 +12.3911957
      1630  26.2814   1.4576 187.7092223 +12.3910645
      1631  22.6709   0.2696 187.7403588 +12.3912798
      1632  22.3149   0.2153 187.6861545 +12.3913515
      1633  26.1364   1.4455 187.7091981 +12.3911849
      1634  26.2479   2.0056 187.7094649 +12.3912402
      1635  24.6333   0.6485 187.6985708 +12.3912775
      1636  24.7065   0.6869 187.7330450 +12.3912374
      1637  26.6109   1.9265 187.7210328 +12.3914225
      1638  23.5555   0.3791 187.6961169 +12.3913442
      1639  24.1491   0.5152 187.6978215 +12.3912650
      1640  26.3076   1.4838 187.7107917 +12.3913450
      1641  26.3382   1.6386 187.7104219 +12.3911835
      1642  26.2335   1.4488 187.7095067 +12.3913064
      1643  25.9571   1.2079 187.6994100 +12.3912903
      1644  25.4849   1.2430 187.7350793 +12.3912477
      1645  26.1003   1.4540 187.7104353 +12.3913839
      1646  23.3113   0.3589 187.7324070 +12.3914312
      1647  25.7833   1.5339 187.7092396 +12.3913546
      1648  26.6355   1.8109 187.7265216 +12.3912516
      1649  24.5998   0.6425 187.7090872 +12.3914558
      1650  26.2419   1.4328 187.7094738 +12.3914420
      1651  25.7520   1.1615 187.7103768 +12.3913486
      1652  25.9241   1.6496 187.7092801 +12.3912866
      1653  26.2786   1.5007 187.7158082 +12.3913459
      1654  25.6154   1.0341 187.7266583 +12.3913702
      1655  21.8103   0.1880 187.7341606 +12.3918998
      1656  24.3778   0.5692 187.6967744 +12.3914581
      1657  23.6143   0.3925 187.7040654 +12.3914712
      1658  26.4610   1.5664 187.6974110 +12.3913790
      1659  26.3853   1.4894 187.7094131 +12.3913986
      1660  27.0083   2.2072 187.7290601 +12.3913617
      1661  26.4999   1.7604 187.7092744 +12.3914847
      1662  22.7487   0.2615 187.6861816 +12.3916898
      1663  26.5204   1.7799 187.7094912 +12.3916946
      1664  26.9499   2.0434 187.7094600 +12.3913677
      1665  26.4213   1.6472 187.7099526 +12.3914508
      1666  26.3918   1.5401 187.7248864 +12.3914312
      1667  24.9426   0.7478 187.7217021 +12.3915523
      1668  26.5132   1.6055 187.7108187 +12.3914246
      1669  23.4346   0.3866 187.7365368 +12.3918018
      1670  25.6293   2.3135 187.7367735 +12.3915357
      1671  23.9577   0.4965 187.7125787 +12.3920864
      1672  24.5770   0.6202 187.6899876 +12.3916030
      1673  26.1076   1.4475 187.7089649 +12.3915328
      1674  23.7968   0.4277 187.6974998 +12.3916918
      1675  24.7109   0.6605 187.7221688 +12.3916147
      1676  25.4494   0.8708 187.6875227 +12.3915743
      1677  26.1219   1.8019 187.7210953 +12.3916348
      1678  26.4898   1.7169 187.7209797 +12.3915861
      1679  25.4601   0.9311 187.7078446 +12.3916392
      1680  25.9779   1.4928 187.7157927 +12.3916201
      1681  25.5004   0.9590 187.7284533 +12.3916492
      1682  26.1110   1.2787 187.7096351 +12.3916432
      1683  26.5512   1.9453 187.7097159 +12.3921807
      1684  23.2604   0.3468 187.7134365 +12.3920213
      1685  26.1852   1.4358 187.7079910 +12.3916883
      1686  26.4744   1.6146 187.7095781 +12.3917148
      1687  26.4392   1.5878 187.7096634 +12.3918294
      1688  26.0032   1.3659 187.7285063 +12.3917246
      1689  23.8631   0.4584 187.7107287 +12.3919075
      1690  26.0628   1.4109 187.7210444 +12.3917718
      1691  26.6441   1.8065 187.7095624 +12.3918731
      1692  25.4452   0.9630 187.7167290 +12.3918496
      1693  26.0739   1.4873 187.7209279 +12.3921862
      1694  24.3452   0.5579 187.6994424 +12.3919617
      1695  26.5042   1.8578 187.7105347 +12.3918621
      1696  22.4186   0.2453 187.7373230 +12.3921475
      1697  26.3940   1.6429 187.7097533 +12.3919290
      1698  26.0587   1.5382 187.7091769 +12.3920911
      1699  22.5978   0.2457 187.7105515 +12.3922999
      1700  25.9898   1.1746 187.7162439 +12.3919397
      1701  24.3127   0.5623 187.7230981 +12.3920390
      1702  25.9204   1.3533 187.7297332 +12.3920847
      1703  26.2843   1.5817 187.7092597 +12.3920414
      1704  23.7550   0.4191 187.6937172 +12.3921640
      1705  26.7269   1.7633 187.7131874 +12.3919236
      1706  23.2438   0.3494 187.7099810 +12.3924461
      1707  24.7952   0.8476 187.7301068 +12.3919937
      1708  26.6834   1.9335 187.7208351 +12.3920648
      1709  26.2894   1.4923 187.7090880 +12.3921386
      1710  23.7935   0.4605 187.7407108 +12.3922417
      1711  24.7980   0.6941 187.7192903 +12.3921754
      1712  26.2589   1.2807 187.7096259 +12.3921624
      1713  26.3065   2.2049 187.7122580 +12.3920645
      1714  25.7496  41.1478 187.7301132 +12.3920606
      1715  23.8888   0.4562 187.6968947 +12.3922877
      1716  25.1898   0.9420 187.7207415 +12.3927559
      1717  26.7266   1.7825 187.7095118 +12.3921084
      1718  22.4338   0.2330 187.7336896 +12.3923941
      1719  24.6576   0.6484 187.7135732 +12.3922699
      1720  26.6739   1.8673 187.7092252 +12.3922831
      1721  26.4133   1.5587 187.7090088 +12.3921841
      1722  24.9354   0.7930 187.7225459 +12.3922851
      1723  23.1593   0.3239 187.7286006 +12.3923566
      1724  26.5873   1.8005 187.7092705 +12.3924049
      1725  26.7083   1.6645 187.7234119 +12.3922121
      1726  26.3690   1.5129 187.7099378 +12.3922111
      1727  26.4610   1.6963 187.7093018 +12.3924926
      1728  26.3981   1.6652 187.7104093 +12.3923334
      1729  26.7763   1.9462 187.7097971 +12.3922269
      1730  26.2764   1.5253 187.7093895 +12.3923249
      1731  26.5482   1.7909 187.7096935 +12.3924567
      1732  26.4457   1.7459 187.7091228 +12.3924284
      1733  24.6292   0.6558 187.7256282 +12.3924238
      1734  26.7887   1.8144 187.7130072 +12.3922843
      1735  24.5648   0.6338 187.7109629 +12.3925607
      1736  25.1934   0.8051 187.6935426 +12.3923997
      1737  26.4573   1.6105 187.7134338 +12.3929587
      1738  25.0012   0.8258 187.6968058 +12.3924712
      1739  26.8642   2.1949 187.7095454 +12.3925916
      1740  24.9549   0.7361 187.7155733 +12.3925263
      1741  26.4846   1.7708 187.7097159 +12.3925866
      1742  25.7337   1.1446 187.7090258 +12.3925251
      1743  26.3557   1.6119 187.7091522 +12.3925585
      1744  23.5736   0.3858 187.6913597 +12.3926501
      1745  26.7043   1.8859 187.7111423 +12.3924115
      1746  26.5440   1.8309 187.7092906 +12.3925727
      1747  25.9452   1.1392 187.6972610 +12.3925268
      1748  24.8339   0.6877 187.6840247 +12.3926261
      1749  26.5597   1.8225 187.7104298 +12.3925236
      1750  25.0492   0.8081 187.7161086 +12.3926455
      1751  26.6595   1.6424 187.6884744 +12.3924798
      1752  26.6366   1.6827 187.7134011 +12.3925347
      1753  24.0624   0.4880 187.6924271 +12.3927617
      1754  26.5446   1.5088 187.7154525 +12.3926280
      1755  24.6475   0.6003 187.6921372 +12.3927085
      1756  25.3679   0.9243 187.6909800 +12.3927102
      1757  26.6634   1.9390 187.7102116 +12.3926509
      1758  24.0468   0.5119 187.7207866 +12.3928804
      1759  22.0052   0.1868 187.6954619 +12.3929978
      1760  25.4924   0.9725 187.7129956 +12.3927690
      1761  24.3451   0.5778 187.7236709 +12.3928469
      1762  25.5083   0.9785 187.7164857 +12.3927943
      1763  26.1472   1.3746 187.7092720 +12.3928215
      1764  26.8043   2.2046 187.6833416 +12.3927502
      1765  25.0655   0.7615 187.6837674 +12.3929578
      1766  26.4778   1.6225 187.7128099 +12.3928274
      1767  23.4601   0.3804 187.7299841 +12.3930753
      1768  26.1691   1.4252 187.7111807 +12.3928799
      1769  26.5910   1.6931 187.7276476 +12.3929181
      1770  26.0135   1.2017 187.7259467 +12.3929554
      1771  26.8436   1.9154 187.7133549 +12.3929156
      1772  26.4382   1.5302 187.7089137 +12.3929900
      1773  21.8904   0.1890 187.7099161 +12.3938567
      1774  26.3666   1.6050 187.7097024 +12.3931920
      1775  24.0365   0.5035 187.7027304 +12.3931268
      1776  25.7519   1.1212 187.7227585 +12.3930287
      1777  24.6359   0.6684 187.7186635 +12.3930941
      1778  25.9236   1.5117 187.7090916 +12.3930540
      1779  26.4909   1.6667 187.7103034 +12.3930155
      1780  26.5639   1.8599 187.7205648 +12.3930183
      1781  24.1707   0.5806 187.7110563 +12.3932615
      1782  26.0029   1.3490 187.7062668 +12.3930725
      1783  22.8072   0.3098 187.7296105 +12.3933508
      1784  26.7674   2.0272 187.7092399 +12.3930514
      1785  24.7698   0.6922 187.7150365 +12.3932790
      1786  25.4943   1.0110 187.7189682 +12.3932266
      1787  26.6854   2.1926 187.7132677 +12.3937087
      1788  26.2427   1.6870 187.7062334 +12.3931736
      1789  26.4739   1.6605 187.7091904 +12.3931829
      1790  26.2414   1.6078 187.7204693 +12.3932783
      1791  26.1340   1.4630 187.7069339 +12.3935538
      1792  25.6437   1.1284 187.7303462 +12.3933248
      1793  23.1070   0.3114 187.7022123 +12.3933961
      1794  25.9564   1.2969 187.7168303 +12.3933323
      1795  24.3601   0.5593 187.6972735 +12.3933712
      1796  26.5846   1.6894 187.7132683 +12.3933417
      1797  24.6561   0.6371 187.7102170 +12.3933733
      1798  22.9807   0.3114 187.7319104 +12.3942376
      1799  26.6299   1.9627 187.7094762 +12.3933242
      1800  25.0707   0.8453 187.7258977 +12.3934430
      1801  26.6056   1.7924 187.7139666 +12.3933327
      1802  26.6068   1.9442 187.7092662 +12.3935212
      1803  25.7115   1.0400 187.6975760 +12.3934358
      1804  25.7914   1.1887 187.7205553 +12.3934362
      1805  24.5207   0.6279 187.7211584 +12.3935561
      1806  26.0047   1.2664 187.7379259 +12.3934847
      1807  24.3443   0.5768 187.7331562 +12.3935999
      1808  26.1873   1.4347 187.7291232 +12.3934730
      1809  22.7608   0.2840 187.7212575 +12.3937936
      1810  25.9173   1.2351 187.7066791 +12.3935321
      1811  26.3978   1.6580 187.7198683 +12.3935163
      1812  25.9685   1.1627 187.6920443 +12.3936003
      1813  26.3618   1.6789 187.7091642 +12.3937372
      1814  26.1228   1.2936 187.7275166 +12.3935706
      1815  23.6417   0.4149 187.7300425 +12.3937625
      1816  25.3102   1.0681 187.7198762 +12.3936200
      1817  24.7245   0.7154 187.7216864 +12.3937061
      1818  26.4520   1.6948 187.7203578 +12.3936984
      1819  23.7561   0.4326 187.7213820 +12.3937998
      1820  26.6627   1.6752 187.7091377 +12.3936259
      1821  26.5186   1.7151 187.7135094 +12.3936269
      1822  26.5972   1.7154 187.7097249 +12.3936797
      1823  26.4150   1.6302 187.7204858 +12.3936720
      1824  24.6104   0.6579 187.7228521 +12.3937680
      1825  26.6347   1.9013 187.7093543 +12.3938667
      1826  24.5783   0.6257 187.7157571 +12.3938026
      1827  24.7739   0.7221 187.6943044 +12.3937882
      1828  26.5437   1.6978 187.7095818 +12.3937616
      1829  24.3806   0.5813 187.7076520 +12.3941149
      1830  26.3995   1.5369 187.7044501 +12.3938701
      1831  23.0324   0.3137 187.7258309 +12.3939935
      1832  26.2503   1.5167 187.7270132 +12.3938289
      1833  26.3828   1.6071 187.7049475 +12.3939116
      1834  23.0336   0.3117 187.7259194 +12.3939662
      1835  23.5069   0.3786 187.7005327 +12.3939761
      1836  26.5130   1.7307 187.7051758 +12.3939607
      1837  26.0807   1.5791 187.7043444 +12.3943005
      1838  26.1098   1.7507 187.7132609 +12.3938314
      1839  25.2924   0.8760 187.6981572 +12.3938996
      1840  25.1576   0.9226 187.7184261 +12.3939221
      1841  25.0575   0.7901 187.6940374 +12.3939692
      1842  26.1035   1.2374 187.6936862 +12.3938767
      1843  22.2306   0.2122 187.6918752 +12.3942599
      1844  26.6927   1.6757 187.7096692 +12.3938837
      1845  26.5265   1.5959 187.7175667 +12.3938708
      1846  24.6987   0.6620 187.7205253 +12.3940123
      1847  23.5847   0.3836 187.6937171 +12.3941334
      1848  23.6182   0.3946 187.7113627 +12.3940610
      1849  25.2909   0.8963 187.7327087 +12.3939879
      1850  24.7797   0.6988 187.7160245 +12.3939962
      1851  26.6586   1.9116 187.7097509 +12.3942757
      1852  26.5557   1.7158 187.7069642 +12.3940646
      1853  24.5367   0.6501 187.6982604 +12.3940980
      1854  26.3164   1.5525 187.7050354 +12.3939900
      1855  25.6291   0.9831 187.7200895 +12.3939940
      1856  24.4110   0.6876 187.7378479 +12.3944811
      1857  26.1988   1.4864 187.7064075 +12.3943111
      1858  26.5018   1.5710 187.7069056 +12.3940848
      1859  23.2965   0.3370 187.6891505 +12.3941777
      1860  24.9543   0.7483 187.7282574 +12.3940713
      1861  25.9852   1.2752 187.7069072 +12.3941852
      1862  26.5875   1.7053 187.7128924 +12.3941944
      1863  26.4556   1.6731 187.7045177 +12.3944840
      1864  26.3520   1.4369 187.7125311 +12.3940442
      1865  26.8400   2.1138 187.7078031 +12.3942226
      1866  25.8155   1.1446 187.6974193 +12.3940759
      1867  25.2146   0.8390 187.6859030 +12.3941133
      1868  22.6895   0.2829 187.7058768 +12.3946026
      1869  26.4065   1.6595 187.7095997 +12.3944500
      1870  26.5960   1.8077 187.7068193 +12.3941273
      1871  26.0268   1.3477 187.7038106 +12.3942851
      1872  26.4573   1.6674 187.7095056 +12.3942254
      1873  26.3677   1.6701 187.7039981 +12.3944291
      1874  26.5948   1.8781 187.7068683 +12.3942640
      1875  22.5337   0.2549 187.7131827 +12.3945593
      1876  26.1565   1.5913 187.7073405 +12.3944665
      1877  25.2462   0.8366 187.7054661 +12.3942715
      1878  26.4947   1.7635 187.7096443 +12.3941594
      1879  23.7088   0.4068 187.6863243 +12.3943633
      1880  26.5725   1.8246 187.7036500 +12.3943046
      1881  26.4734   1.7227 187.7056065 +12.3942372
      1882  24.1317   0.5269 187.7056635 +12.3943851
      1883  26.4094   1.7165 187.7075966 +12.3942336
      1884  26.3366   1.5681 187.7076732 +12.3942259
      1885  26.3806   1.6641 187.7327577 +12.3941861
      1886  26.3194   1.6039 187.7050091 +12.3942612
      1887  26.0878   1.3586 187.7104276 +12.3941958
      1888  26.2818   1.5639 187.7073444 +12.3942809
      1889  26.3131   1.6574 187.7073600 +12.3943729
      1890  26.4440   1.5182 187.7081407 +12.3943711
      1891  26.4779   1.9524 187.7062545 +12.3942937
      1892  26.6279   1.9301 187.7058856 +12.3943393
      1893  24.9357   0.7537 187.7046460 +12.3945518
      1894  26.6819   2.1823 187.7065520 +12.3943858
      1895  26.2805   1.5140 187.7084881 +12.3943845
      1896  26.2075   1.5129 187.7035158 +12.3945940
      1897  26.7660   1.7865 187.7239236 +12.3942287
      1898  26.3253   1.4363 187.7045775 +12.3943154
      1899  26.0504   1.5188 187.7202760 +12.3943380
      1900  26.5838   1.6830 187.7077738 +12.3943268
      1901  26.6228   1.7749 187.7079269 +12.3943340
      1902  26.4697   1.6599 187.7070441 +12.3943774
      1903  26.3249   1.4767 187.7075512 +12.3944529
      1904  26.3361   1.4566 187.7080757 +12.3943953
      1905  23.9749   0.4700 187.7110366 +12.3945254
      1906  26.5188   1.7673 187.7097086 +12.3943716
      1907  23.3100   0.4787 187.6974503 +12.3946226
      1908  25.3712   0.9779 187.7103563 +12.3944528
      1909  24.5209   0.7332 187.7063260 +12.3946040
      1910  26.3600   1.5474 187.7062975 +12.3944207
      1911  26.6304   1.7262 187.7096962 +12.3944354
      1912  23.0627   0.3011 187.7019512 +12.3948135
      1913  25.7363   1.2340 187.7015258 +12.3944052
      1914  26.4126   1.7996 187.7060575 +12.3944070
      1915  26.6410   1.7010 187.7244153 +12.3944063
      1916  26.6053   1.5880 187.7074080 +12.3944346
      1917  26.2584   1.4471 187.7070789 +12.3945189
      1918  26.3182   1.4651 187.7126376 +12.3944680
      1919  26.8725   2.3498 187.7201494 +12.3944354
      1920  26.3472   1.8362 187.7068551 +12.3945614
      1921  25.7704   1.2492 187.7081150 +12.3946010
      1922  26.7244   1.9180 187.7156682 +12.3946546
      1923  26.1997   1.4438 187.7073216 +12.3945668
      1924  26.1571   1.2913 187.6932098 +12.3945075
      1925  26.3791   1.7201 187.7071133 +12.3946315
      1926  23.7529   0.4483 187.7366122 +12.3946570
      1927  26.4388   1.6966 187.7291122 +12.3945006
      1928  26.5388   1.7796 187.7077000 +12.3945320
      1929  24.2194   0.5637 187.7063645 +12.3947878
      1930  24.9341   0.7606 187.7148907 +12.3946456
      1931  26.5145   1.6489 187.7072482 +12.3945180
      1932  26.5259   1.7407 187.7098629 +12.3945853
      1933  24.2271   0.5125 187.6885668 +12.3946565
      1934  24.3380   0.5706 187.7285921 +12.3946576
      1935  24.0308   0.5325 187.7006552 +12.3948179
      1936  26.5283   2.0832 187.7072195 +12.3947515
      1937  26.6771   1.8503 187.7069471 +12.3945754
      1938  26.4806   1.6948 187.7028866 +12.3946424
      1939  25.8874   1.4212 187.7087516 +12.3946872
      1940  26.3047   1.5917 187.7072759 +12.3946456
      1941  26.4792   1.5684 187.7052278 +12.3945389
      1942  26.6946   1.6860 187.7214946 +12.3945429
      1943  25.1315   0.8060 187.6916158 +12.3946630
      1944  24.1998   0.5347 187.7111524 +12.3946612
      1945  26.7206   1.8330 187.7080484 +12.3945179
      1946  23.4346   0.3911 187.7198871 +12.3946290
      1947  25.0009   0.7916 187.6902694 +12.3946527
      1948  23.6427   0.7049 187.7001075 +12.3947639
      1949  26.6055   1.7263 187.7068647 +12.3947497
      1950  23.3111   0.3459 187.6860270 +12.3947818
      1951  26.3013   1.7808 187.7070141 +12.3947767
      1952  26.2479   1.6401 187.7075188 +12.3946443
      1953  26.2142   1.4204 187.7029651 +12.3946419
      1954  26.6827   1.8674 187.7077238 +12.3946991
      1955  26.4153   1.7136 187.7088516 +12.3946922
      1956  26.4196   1.6167 187.7096411 +12.3946262
      1957  26.4173   1.7209 187.7025178 +12.3947739
      1958  26.4510   1.5883 187.7188233 +12.3946729
      1959  25.1346   0.8007 187.7179709 +12.3947195
      1960  26.0041   1.3499 187.7095788 +12.3947001
      1961  26.5565   1.8231 187.7047805 +12.3948992
      1962  23.9451   0.4741 187.7285627 +12.3948406
      1963  24.9863   0.7606 187.7046234 +12.3948693
      1964  26.7279   1.8702 187.7097414 +12.3947103
      1965  26.3026   1.5345 187.7088345 +12.3948014
      1966  26.2884   1.5414 187.7101383 +12.3948881
      1967  26.4242   1.5089 187.6881115 +12.3947675
      1968  26.0423   1.2610 187.7017668 +12.3948060
      1969  26.2523   1.5161 187.7050972 +12.3947980
      1970  26.4393   1.7520 187.7021941 +12.3949168
      1971  26.1176   1.3987 187.7275450 +12.3947616
      1972  26.6922   1.6263 187.7043073 +12.3948292
      1973  26.3434   1.5419 187.7076888 +12.3948561
      1974  26.6487   1.7491 187.7128799 +12.3947600
      1975  26.5411   1.6379 187.7096770 +12.3948495
      1976  22.6507   0.2615 187.7135345 +12.3955140
      1977  26.5231   1.6859 187.7049864 +12.3948977
      1978  26.7064   2.0914 187.7067275 +12.3949024
      1979  25.7533   1.2187 187.7323869 +12.3948479
      1980  24.9974   0.7477 187.6986403 +12.3949177
      1981  26.6282   1.8384 187.7092356 +12.3948836
      1982  26.7867   2.0217 187.7066379 +12.3948289
      1983  24.6245   0.6432 187.7129310 +12.3950076
      1984  22.2785   0.2190 187.7075988 +12.3955235
      1985  23.7810   0.4390 187.7236790 +12.3950698
      1986  26.5982   1.7952 187.7096094 +12.3949311
      1987  25.9950   1.5322 187.7076416 +12.3950047
      1988  26.4124   1.5176 187.7074730 +12.3949808
      1989  26.2840   1.4858 187.7097813 +12.3950377
      1990  24.1278   0.4948 187.7068652 +12.3949986
      1991  26.4076   1.6364 187.7052158 +12.3949317
      1992  26.2635   2.0008 187.7024932 +12.3949656
      1993  26.3883   1.7590 187.7099033 +12.3950466
      1994  24.6813   0.7636 187.7340965 +12.3949783
      1995  26.2868   1.5623 187.7021928 +12.3954231
      1996  26.4233   1.5716 187.7074173 +12.3949896
      1997  26.6822   1.7614 187.7094223 +12.3950388
      1998  24.4575   0.6040 187.7028616 +12.3955301
      1999  25.6698   1.2179 187.6885186 +12.3949736
      2000  26.3981   1.5361 187.7095411 +12.3950422
      2001  23.7085   0.4264 187.7217905 +12.3951283
      2002  26.7587   1.9459 187.7023750 +12.3951335
      2003  26.5462   1.9359 187.7123651 +12.3949533
      2004  24.7639   0.6933 187.7174265 +12.3950886
      2005  25.6617   1.0606 187.7219367 +12.3950564
      2006  25.5121   0.9902 187.6932723 +12.3951453
      2007  26.8025   2.1622 187.7069649 +12.3950397
      2008  26.4249   1.6148 187.7100976 +12.3951822
      2009  26.4860   1.6777 187.7091643 +12.3950128
      2010  26.0149   7.9124 187.7031153 +12.3950609
      2011  23.9042   0.4494 187.6861761 +12.3952128
      2012  23.1906   0.3262 187.6855385 +12.3952779
      2013  24.8129   0.6948 187.7192096 +12.3951498
      2014  26.4537   1.6788 187.7022658 +12.3950910
      2015  26.0468   1.5876 187.7017351 +12.3950502
      2016  24.1078   0.4817 187.6910598 +12.3951977
      2017  24.9692   0.7316 187.7201813 +12.3951614
      2018  22.8684   0.3071 187.7310691 +12.3953507
      2019  23.9054   0.4655 187.7025021 +12.3955046
      2020  23.1891   0.4732 187.7095404 +12.3952971
      2021  26.4003   1.9506 187.7056728 +12.3950755
      2022  26.5542   1.7416 187.7100235 +12.3950715
      2023  26.4798   2.4262 187.7061099 +12.3950717
      2024  26.4788   1.7441 187.7017966 +12.3952163
      2025  26.8200   1.9825 187.7080088 +12.3950875
      2026  25.0502   0.8296 187.7012415 +12.3951359
      2027  25.9592   1.4738 187.7034172 +12.3951303
      2028  26.7633   1.8712 187.7035661 +12.3950632
      2029  25.8706   1.3064 187.7242792 +12.3951693
      2030  26.5715   1.8265 187.7019100 +12.3952120
      2031  24.7060   0.6923 187.7129823 +12.3952832
      2032  24.1906   0.6507 187.7055983 +12.3952421
      2033  26.4665   1.4979 187.7320470 +12.3951167
      2034  26.6626   1.7822 187.7199359 +12.3951158
      2035  26.6742   2.2382 187.7025439 +12.3952472
      2036  22.8783   0.2839 187.6874932 +12.3954445
      2037  26.1253   1.6059 187.7074455 +12.3951261
      2038  26.6699   1.7747 187.7022031 +12.3951582
      2039  26.3231   6.2495 187.7029476 +12.3951028
      2040  25.0072   0.8738 187.7359149 +12.3952481
      2041  26.5460   1.6787 187.7037254 +12.3952273
      2042  26.5778   1.6282 187.7043462 +12.3951872
      2043  24.6884   0.6488 187.7084522 +12.3956457
      2044  26.4384   1.5150 187.7063165 +12.3958250
      2045  26.4077   1.6664 187.7045917 +12.3952087
      2046  26.0297   1.5859 187.7103760 +12.3952300
      2047  26.5313   2.0993 187.7099563 +12.3951812
      2048  26.3890   1.5266 187.7032799 +12.3952162
      2049  23.3944   0.3638 187.6975511 +12.3954629
      2050  25.3394   0.9340 187.7265389 +12.3952183
      2051  26.0687   1.6175 187.7084699 +12.3952324
      2052  26.3575   1.7166 187.7063648 +12.3952966
      2053  26.5847   1.6141 187.7020518 +12.3952756
      2054  26.5752   1.8455 187.7043824 +12.3952759
      2055  23.7026   0.4244 187.7332557 +12.3954175
      2056  25.5369   2.7849 187.7114664 +12.3952813
      2057  26.6809   1.7659 187.7015216 +12.3952235
      2058  26.0964   1.4294 187.7087181 +12.3952531
      2059  23.9651   0.5683 187.7272128 +12.3953992
      2060  26.8637   1.8718 187.7107531 +12.3951902
      2061  26.9034   2.0330 187.7050531 +12.3952392
      2062  26.6807   1.8680 187.7132411 +12.3952341
      2063  26.5976   1.7867 187.7149378 +12.3952398
      2064  26.5470   1.6031 187.7057386 +12.3953810
      2065  26.1655   1.8198 187.7016980 +12.3954905
      2066  26.7403   1.6820 187.7026528 +12.3952793
      2067  25.9521   1.3469 187.7100097 +12.3953119
      2068  26.0734   1.5255 187.7394337 +12.3952817
      2069  26.5283   1.6592 187.7125390 +12.3952796
      2070  25.9837   1.5357 187.7281928 +12.3953248
      2071  26.0657   1.6766 187.7101355 +12.3953502
      2072  25.6265   1.1394 187.7101187 +12.3954702
      2073  26.5113   1.6189 187.7004965 +12.3953447
      2074  26.4519   1.5999 187.7017044 +12.3953394
      2075  22.8383   0.2771 187.6937911 +12.3955517
      2076  26.4555   2.5906 187.7098390 +12.3953100
      2077  26.6379   1.6725 187.7051186 +12.3953241
      2078  26.3122   1.4911 187.7065219 +12.3953236
      2079  26.1842   1.5585 187.7021231 +12.3954340
      2080  26.8223   2.1740 187.7013932 +12.3954057
      2081  26.7988   1.8465 187.7032615 +12.3953372
      2082  26.5274   1.7662 187.7018571 +12.3953836
      2083  26.4730   1.9060 187.7046919 +12.3953870
      2084  26.7640   1.8812 187.7045211 +12.3953454
      2085  26.8644   2.2016 187.7051617 +12.3954158
      2086  26.4322   1.6438 187.7279993 +12.3954014
      2087  26.4846   1.6276 187.7019912 +12.3955539
      2088  24.8118   0.6794 187.6977277 +12.3954782
      2089  26.7245   1.6627 187.7041629 +12.3954388
      2090  26.6833   1.9016 187.7041466 +12.3953556
      2091  26.7363   1.7802 187.7040536 +12.3954257
      2092  26.7615   2.0578 187.7080848 +12.3953845
      2093  26.1282   2.0923 187.7098719 +12.3954183
      2094  26.8568   1.9773 187.7064688 +12.3954839
      2095  26.8309   2.2240 187.7068531 +12.3954005
      2096  26.5267   1.6410 187.7069748 +12.3954664
      2097  26.6639   1.9303 187.7053566 +12.3954838
      2098  24.3418   0.5679 187.7089395 +12.3955831
      2099  25.0254   0.7501 187.6945910 +12.3955163
      2100  26.8897   2.3930 187.7050299 +12.3954278
      2101  25.9281   1.1375 187.7330058 +12.3955081
      2102  26.5591   1.6370 187.7051634 +12.3955129
      2103  24.6646   0.7256 187.7343262 +12.3956247
      2104  26.4638   1.6081 187.7177804 +12.3955203
      2105  26.7736   2.0030 187.7018798 +12.3954995
      2106  26.1577   1.5546 187.7100547 +12.3959851
      2107  23.2472   0.3315 187.6941020 +12.3957556
      2108  26.7479   1.8644 187.7057106 +12.3955827
      2109  26.9766   2.2322 187.7080595 +12.3954826
      2110  26.8230   2.1578 187.7112843 +12.3960301
      2111  26.6194   1.7348 187.7096460 +12.3955483
      2112  26.1436   1.6372 187.7102553 +12.3955933
      2113  26.6720   1.8224 187.7066087 +12.3955347
      2114  25.3928   0.9772 187.7368940 +12.3956178
      2115  25.6262   1.3403 187.7045010 +12.3956935
      2116  23.0361   0.2963 187.6873718 +12.3958417
      2117  24.6405   0.6468 187.7068070 +12.3959009
      2118  26.6683   1.7599 187.7105181 +12.3956145
      2119  26.3031   1.6040 187.7106384 +12.3957684
      2120  26.7896   2.0549 187.7017130 +12.3957762
      2121  26.8780   1.9596 187.7060968 +12.3956430
      2122  26.7877   1.8008 187.7146485 +12.3956427
      2123  26.0312   1.3732 187.7329309 +12.3956707
      2124  26.6514   1.9022 187.7102972 +12.3957949
      2125  26.7979   1.8561 187.7051178 +12.3956661
      2126  26.6387   1.9436 187.7197721 +12.3956801
      2127  26.5695   1.8799 187.7012526 +12.3956955
      2128  26.4098   1.6907 187.7097971 +12.3957265
      2129  25.7465   1.2397 187.7020754 +12.3960271
      2130  26.6167   1.7555 187.7067910 +12.3956886
      2131  22.1544   0.2014 187.6940669 +12.3960915
      2132  26.8617   2.0810 187.7049169 +12.3956978
      2133  26.7106   1.7220 187.7016230 +12.3957747
      2134  24.3763   0.5580 187.6937885 +12.3958861
      2135  26.8235   2.1333 187.7113187 +12.3957548
      2136  25.2172   0.8709 187.7028237 +12.3958731
      2137  26.7284   2.0373 187.7058781 +12.3957297
      2138  24.4195   0.5772 187.7082923 +12.3959180
      2139  26.4352   1.6055 187.7067402 +12.3958320
      2140  26.5456   1.8552 187.7039438 +12.3957961
      2141  25.0869   0.8018 187.6977075 +12.3959071
      2142  26.7321   1.8313 187.7037125 +12.3959978
      2143  26.3107   1.5949 187.7017596 +12.3959634
      2144  26.5181   1.5146 187.7052324 +12.3958395
      2145  23.3974   0.3663 187.6951964 +12.3960237
      2146  26.2086   1.3946 187.7007482 +12.3958825
      2147  25.7311   1.0042 187.6925995 +12.3958808
      2148  26.7404   1.9616 187.7058047 +12.3961174
      2149  26.6283   1.6649 187.7061226 +12.3958626
      2150  26.4904   2.0776 187.7072216 +12.3959003
      2151  24.5172   0.6396 187.6990495 +12.3960651
      2152  26.6394   1.7311 187.7008298 +12.3958902
      2153  26.5464   1.9819 187.7062766 +12.3959361
      2154  23.3352   0.3498 187.7044817 +12.3961724
      2155  26.1207   1.3108 187.6929471 +12.3960680
      2156  26.4400   1.8745 187.7010628 +12.3960145
      2157  26.5394   1.6552 187.7198182 +12.3959820
      2158  24.0196   0.5116 187.7196557 +12.3965776
      2159  22.7603   0.2873 187.7152031 +12.3962748
      2160  26.6614   1.7653 187.7041932 +12.3959571
      2161  23.8337   0.4400 187.7043491 +12.3962168
      2162  26.4873   1.6148 187.7090067 +12.3959895
      2163  26.3305   1.3176 187.6986713 +12.3960219
      2164  26.7010   1.8195 187.7064912 +12.3960302
      2165  26.6107   1.8340 187.7196693 +12.3960327
      2166  26.6297   1.9828 187.7019668 +12.3961828
      2167  26.6903   1.8684 187.7041575 +12.3960778
      2168  25.0478   0.7739 187.7101124 +12.3962018
      2169  24.8278   0.7189 187.7373186 +12.3961385
      2170  24.8807   0.7088 187.7004232 +12.3961873
      2171  25.9944   1.2557 187.7034891 +12.3961546
      2172  24.7760   0.6578 187.7082064 +12.3961539
      2173  25.5309   1.2074 187.7096207 +12.3961546
      2174  24.9320   0.7327 187.7060349 +12.3962688
      2175  23.6346   0.4043 187.7403601 +12.3962854
      2176  25.5740   0.9993 187.7084096 +12.3961844
      2177  26.8303   1.7732 187.7030422 +12.3961160
      2178  25.7431   1.1168 187.7016314 +12.3962088
      2179  26.6575   1.6967 187.7062763 +12.3961371
      2180  26.6480   1.9855 187.7110003 +12.3961404
      2181  26.5727   1.6853 187.7009639 +12.3962545
      2182  26.6886   1.9065 187.7025968 +12.3961883
      2183  26.5454   1.5442 187.7303586 +12.3961542
      2184  23.9189   0.4582 187.7079366 +12.3964014
      2185  26.7041   1.8230 187.7054189 +12.3962272
      2186  26.4517   1.4560 187.6959142 +12.3961961
      2187  24.5340   0.6077 187.6955474 +12.3963043
      2188  26.5771   1.8580 187.7111947 +12.3961943
      2189  26.3039   1.3872 187.6971125 +12.3962443
      2190  26.2143   1.3305 187.7167746 +12.3962267
      2191  25.2582   0.8147 187.7048100 +12.3963030
      2192  26.7769   1.7858 187.7038863 +12.3962354
      2193  26.7399   1.9239 187.7042263 +12.3963674
      2194  26.4056   1.5374 187.7195936 +12.3962991
      2195  25.6686   1.2410 187.6929260 +12.3963103
      2196  23.0542   0.3043 187.7033995 +12.3965687
      2197  26.8221   2.0097 187.7054912 +12.3962900
      2198  26.1291   1.3156 187.7029498 +12.3962963
      2199  26.6185   1.8357 187.7091553 +12.3963078
      2200  26.7461   1.8673 187.7010909 +12.3962739
      2201  22.9169   0.2789 187.6895212 +12.3965480
      2202  24.6188   0.7425 187.7132940 +12.3964732
      2203  23.9161   0.4620 187.7013564 +12.3966421
      2204  26.7145   1.8293 187.7003226 +12.3963742
      2205  26.6939   1.8005 187.7038867 +12.3963569
      2206  24.9450   0.7620 187.7096258 +12.3965247
      2207  24.5863   0.6176 187.6980213 +12.3965285
      2208  25.1430   0.7692 187.6948554 +12.3964567
      2209  26.2532   1.5996 187.7195404 +12.3964877
      2210  26.3750   1.5314 187.7035618 +12.3964185
      2211  26.4789   1.5862 187.7134756 +12.3964208
      2212  26.1901   1.2265 187.6968876 +12.3964655
      2213  26.6473   1.7105 187.7011370 +12.3964493
      2214  24.2257   0.5378 187.7246948 +12.3965646
      2215  24.5825   0.6185 187.7040841 +12.3966010
      2216  26.6830   1.6426 187.6939044 +12.3964763
      2217  26.4977   1.5544 187.7054514 +12.3964729
      2218  26.5671   1.6836 187.6893253 +12.3965032
      2219  26.4601   1.7472 187.6970101 +12.3969271
      2220  25.5973   1.0480 187.7110124 +12.3966324
      2221  26.6163   1.6810 187.7091764 +12.3965595
      2222  26.5335   1.6067 187.7030204 +12.3965457
      2223  26.1805   1.2826 187.7053948 +12.3966073
      2224  26.5740   1.7556 187.7050989 +12.3966054
      2225  26.7525   2.0118 187.6914022 +12.3965343
      2226  25.8687   1.1365 187.6875618 +12.3966499
      2227  26.6129   1.7125 187.7007326 +12.3965988
      2228  26.7230   2.0603 187.7064783 +12.3966013
      2229  22.6177   0.2568 187.7207528 +12.3968376
      2230  25.6323   1.1092 187.7050872 +12.3972686
      2231  22.8589   0.2866 187.7090513 +12.3968377
      2232  24.3498   0.6216 187.7126727 +12.3967541
      2233  26.6048   2.0557 187.7103865 +12.3966153
      2234  26.5563   1.7543 187.7075973 +12.3965934
      2235  26.8066   1.9030 187.7049130 +12.3965911
      2236  26.6508   1.8293 187.7031688 +12.3966409
      2237  26.2914   1.4587 187.7081021 +12.3966549
      2238  26.7636   1.9499 187.7010267 +12.3967196
      2239  26.6030   1.6174 187.7061088 +12.3966688
      2240  25.9274   1.1530 187.6907766 +12.3967288
      2241  23.7325   0.4196 187.7172515 +12.3969102
      2242  26.5866   1.6888 187.7195951 +12.3967543
      2243  26.8546   1.9117 187.7053207 +12.3967355
      2244  23.9930   0.4960 187.7150682 +12.3969530
      2245  26.3607   1.8260 187.7094075 +12.3967721
      2246  26.7976   1.8395 187.7071575 +12.3967521
      2247  22.8848   0.2854 187.7023559 +12.3970302
      2248  26.4309   1.5340 187.7084155 +12.3968274
      2249  24.7601   1.0043 187.6872661 +12.3968927
      2250  23.2142   0.3278 187.6892124 +12.3970419
      2251  26.4534   1.4223 187.6948184 +12.3968578
      2252  26.7021   1.6960 187.7200087 +12.3968479
      2253  26.6536   1.8751 187.7194195 +12.3968795
      2254  26.3055   1.5876 187.7161714 +12.3968667
      2255  26.1115   1.2872 187.6849547 +12.3969423
      2256  23.1887   0.3212 187.6927572 +12.3970857
      2257  24.8486   0.6760 187.6862857 +12.3969587
      2258  25.8388   1.4091 187.6976447 +12.3969203
      2259  26.8506   1.9265 187.7195405 +12.3969211
      2260  24.9646   0.7723 187.6979374 +12.3971104
      2261  24.8720   0.7200 187.7239803 +12.3970541
      2262  26.0691   1.2410 187.7205545 +12.3969780
      2263  26.3068   1.6282 187.7152336 +12.3969945
      2264  26.7197   2.0832 187.7059246 +12.3969256
      2265  25.8065   1.0985 187.6987333 +12.3970383
      2266  25.2390   0.8017 187.6954079 +12.3971195
      2267  25.1412   0.8648 187.7046593 +12.3972205
      2268  25.5766   0.9958 187.7034477 +12.3970714
      2269  26.6034   1.6205 187.7129669 +12.3970022
      2270  24.5708   0.7176 187.7149537 +12.3970895
      2271  26.5957   1.8122 187.7041739 +12.3970085
      2272  26.5392   1.8979 187.7116920 +12.3970597
      2273  26.1691   1.3365 187.7022733 +12.3971300
      2274  26.6894   1.7561 187.7058967 +12.3970907
      2275  26.3841   1.5791 187.7050725 +12.3971740
      2276  25.5776   1.0126 187.6917058 +12.3971899
      2277  26.7838   1.8047 187.7256642 +12.3970484
      2278  26.8752   1.9788 187.7111913 +12.3970660
      2279  25.5810   1.2586 187.7270286 +12.3971586
      2280  26.3240   1.4927 187.7127448 +12.3971300
      2281  26.5664   1.6183 187.7129484 +12.3971406
      2282  26.5323   1.5667 187.7130306 +12.3971376
      2283  22.8348   0.4833 187.6957062 +12.3973429
      2284  26.7503   1.9233 187.7132562 +12.3971542
      2285  25.6998   1.1035 187.7149956 +12.3972555
      2286  22.9084   0.2915 187.7089892 +12.3973626
      2287  25.7179   1.0702 187.7308254 +12.3971901
      2288  26.7917   1.9728 187.7124821 +12.3971201
      2289  24.8416   0.7166 187.7229252 +12.3973006
      2290  25.2050   0.8427 187.7152795 +12.3972680
      2291  26.5656   1.7793 187.7015076 +12.3972066
      2292  26.6537   1.7248 187.7140964 +12.3971881
      2293  26.6129   1.6901 187.7082431 +12.3972247
      2294  26.6974   1.9208 187.7099146 +12.3972257
      2295  25.7720   1.0805 187.7132248 +12.3973085
      2296  26.0203   1.2249 187.6938129 +12.3973397
      2297  22.8515   0.2832 187.7235627 +12.3974836
      2298  21.6666   0.1738 187.7334334 +12.3976280
      2299  26.8811   1.9180 187.7136297 +12.3971684
      2300  25.0053   0.7603 187.7130584 +12.3973537
      2301  26.8642   1.9661 187.7148496 +12.3972216
      2302  24.8447   0.8174 187.7101595 +12.3973332
      2303  24.9842   0.7276 187.6895878 +12.3974099
      2304  22.4057   0.2332 187.7073583 +12.3975919
      2305  26.4899   1.5483 187.6969734 +12.3973295
      2306  26.6471   1.6942 187.7158406 +12.3972694
      2307  26.8266   1.9563 187.7004367 +12.3973066
      2308  25.6694   1.0390 187.6925177 +12.3973747
      2309  25.5763   1.0746 187.7096100 +12.3974254
      2310  26.9454   1.9635 187.7154659 +12.3972517
      2311  26.4967   1.4724 187.7044305 +12.3973310
      2312  26.6968   2.0634 187.7025705 +12.3973018
      2313  26.6520   1.8243 187.7192716 +12.3973743
      2314  26.7195   1.7762 187.7015392 +12.3973763
      2315  25.0117   0.7551 187.6887635 +12.3974112
      2316  26.5396   1.5636 187.7290275 +12.3973899
      2317  26.6588   1.6967 187.7193953 +12.3974245
      2318  26.6758   1.5910 187.6912928 +12.3974293
      2319  26.8344   2.0444 187.7060345 +12.3974650
      2320  26.6355   1.7393 187.7050723 +12.3974887
      2321  26.7659   1.7930 187.7047546 +12.3975073
      2322  26.3702   1.5884 187.7053258 +12.3975911
      2323  25.8219   1.3475 187.7124787 +12.3975147
      2324  24.7556   0.6949 187.7110867 +12.3976584
      2325  23.3075   0.3532 187.7255879 +12.3977616
      2326  22.9137   0.3003 187.7278645 +12.3978252
      2327  26.3947   1.6196 187.7060734 +12.3975478
      2328  26.5520   1.5840 187.6949717 +12.3976031
      2329  26.5923   1.5693 187.7295941 +12.3975944
      2330  26.0133   1.2670 187.6997413 +12.3977292
      2331  26.3286   1.3515 187.6939855 +12.3976635
      2332  24.1385   0.6492 187.7134125 +12.3977430
      2333  25.0682   0.7633 187.6996716 +12.3977710
      2334  26.3543   1.4250 187.7285712 +12.3976705
      2335  25.7597   1.1395 187.6958849 +12.3977163
      2336  21.0076   0.1226 187.7069053 +12.3983647
      2337  26.3884   1.6169 187.7182184 +12.3977116
      2338  25.5692   1.0388 187.7058538 +12.3979358
      2339  24.8244   0.6960 187.6976526 +12.3978359
      2340  24.0993   0.4932 187.6992757 +12.3978985
      2341  24.0889   0.4989 187.7016887 +12.3978872
      2342  26.3492   1.9040 187.7038576 +12.3977456
      2343  26.4122   1.5440 187.7051901 +12.3977523
      2344  22.1981   0.2249 187.7190516 +12.3987284
      2345  24.6297   0.6672 187.7332623 +12.3979443
      2346  24.2199   0.6168 187.7074258 +12.3979088
      2347  26.5671   1.4554 187.6926082 +12.3978094
      2348  23.7897   0.4510 187.6985279 +12.3980192
      2349  23.2490   0.3388 187.7129839 +12.3980460
      2350  22.8108   0.2679 187.6890471 +12.3980786
      2351  27.0443   2.1372 187.7004136 +12.3978016
      2352  23.1930   0.3353 187.7148218 +12.3980717
      2353  26.0281   1.9241 187.7072357 +12.3978998
      2354  26.0650   1.8315 187.7078151 +12.3979323
      2355  24.4777   0.5813 187.6922770 +12.3980117
      2356  26.6293   1.9465 187.7022784 +12.3979110
      2357  25.0376   0.7497 187.6966944 +12.3980099
      2358  24.0906   0.5510 187.7025497 +12.3981981
      2359  26.4041   2.0118 187.7080280 +12.3979118
      2360  26.8251   1.7094 187.6925251 +12.3979227
      2361  24.4210   0.5705 187.6929003 +12.3980903
      2362  23.7843   0.4367 187.7249882 +12.3981286
      2363  26.6269   1.5872 187.7028935 +12.3980149
      2364  26.1582   1.2413 187.7183163 +12.3980483
      2365  23.7243   0.4559 187.7116242 +12.3982343
      2366  26.1749   1.4515 187.7190674 +12.3981106
      2367  26.0934   1.3763 187.6998774 +12.3981528
      2368  24.6698   0.6495 187.6997981 +12.3982646
      2369  26.7959   1.9907 187.7059374 +12.3981586
      2370  26.5137   1.4678 187.6957271 +12.3981446
      2371  26.7194   1.7777 187.7001444 +12.3981574
      2372  26.3939   1.4284 187.7126583 +12.3981837
      2373  23.9141   0.4566 187.7231636 +12.3984102
      2374  26.4772   1.8355 187.7063923 +12.3982503
      2375  24.7675   0.6975 187.7248153 +12.3983773
      2376  25.6283   1.0665 187.7313444 +12.3983368
      2377  25.5196   1.2074 187.7150703 +12.3982931
      2378  26.2787   1.4080 187.7233416 +12.3983421
      2379  24.8278   0.7521 187.7029608 +12.3984121
      2380  26.7139   1.8851 187.7189840 +12.3983658
      2381  25.0264   0.8591 187.6991693 +12.3983982
      2382  26.4170   1.5309 187.7270405 +12.3983901
      2383  26.5975   1.7170 187.7082718 +12.3983902
      2384  26.5714   1.7099 187.7077584 +12.3986351
      2385  26.7589   1.7692 187.7034542 +12.3984573
      2386  24.4138   0.5994 187.7337353 +12.3986133
      2387  24.6784   0.6937 187.7299956 +12.3986228
      2388  26.6758   1.6200 187.7003804 +12.3984517
      2389  26.6674   1.8876 187.7007155 +12.3984515
      2390  26.6646   1.7846 187.7102053 +12.3984989
      2391  26.6609   1.7762 187.7263976 +12.3984682
      2392  26.5396   1.5746 187.6975516 +12.3985149
      2393  26.5780   1.5707 187.7065769 +12.3985672
      2394  26.5518   1.6816 187.7049763 +12.3985852
      2395  22.7678   0.2796 187.7070603 +12.3988431
      2396  23.9301   0.4753 187.7027235 +12.3988995
      2397  24.6955   0.8376 187.7134323 +12.3987851
      2398  26.7524   1.9381 187.7059705 +12.3986532
      2399  26.8488   2.0864 187.7048675 +12.3988071
      2400  26.1269   1.2968 187.7201245 +12.3988080
      2401  23.1143   0.3118 187.6845535 +12.3989595
      2402  23.9410   0.4621 187.7065526 +12.3988947
      2403  25.8409   1.1726 187.6896259 +12.3988655
      2404  26.4703   1.4478 187.6909176 +12.3987621
      2405  26.5755   1.5974 187.7065638 +12.3987583
      2406  22.8278   0.2828 187.7171193 +12.3991534
      2407  25.9781   1.3339 187.7131324 +12.3988958
      2408  26.5157   1.4989 187.6957843 +12.3988857
      2409  25.0944   0.7776 187.6999827 +12.3990203
      2410  25.0089   0.7713 187.7212737 +12.3990327
      2411  24.9565   0.7634 187.7295419 +12.3990443
      2412  24.4446   0.5887 187.6859250 +12.3991520
      2413  26.4134   1.4345 187.7088017 +12.3990101
      2414  26.4941   1.7916 187.7189024 +12.3990762
      2415  26.7065   1.6982 187.6966008 +12.3989766
      2416  26.4667   1.6938 187.7300539 +12.3990658
      2417  24.6072   0.6336 187.7218778 +12.3991917
      2418  26.7075   1.8938 187.7273772 +12.3991932
      2419  23.6974   0.4177 187.7049758 +12.3993256
      2420  26.5738   1.6364 187.7003196 +12.3991080
      2421  26.6859   1.7632 187.7062885 +12.3991244
      2422  23.7520   0.4360 187.7393834 +12.3993287
      2423  26.2855   1.3282 187.7096730 +12.3991551
      2424  26.7033   1.9800 187.7187125 +12.3992632
      2425  26.2102   1.5731 187.7188354 +12.3993046
      2426  26.2133   1.4424 187.7324580 +12.3992437
      2427  26.7977   1.7062 187.7083997 +12.3992260
      2428  25.6543   0.9916 187.6900206 +12.3993072
      2429  23.3730   0.3625 187.7117450 +12.3995023
      2430  24.9806   0.7322 187.6994032 +12.3993996
      2431  26.0245   1.1616 187.6976697 +12.3992982
      2432  23.0147   0.2936 187.6855634 +12.3995116
      2433  24.4602   0.6547 187.7346825 +12.3993509
      2434  26.0632   1.2706 187.7309843 +12.3993307
      2435  23.7650   0.5977 187.7332388 +12.3995295
      2436  24.9250   0.7326 187.7093219 +12.3994192
      2437  23.4632   0.3831 187.7164412 +12.3995097
      2438  26.6452   1.8050 187.7186994 +12.3993459
      2439  26.7961   1.8491 187.7065367 +12.3993743
      2440  26.1562   1.2467 187.6937279 +12.3994255
      2441  24.3975   0.5422 187.6967110 +12.3995495
      2442  26.8610   2.0359 187.7080673 +12.3994539
      2443  26.7095   2.0681 187.7186317 +12.3995733
      2444  23.3992   0.3653 187.7254002 +12.3996488
      2445  25.1279   0.8131 187.6969444 +12.3996007
      2446  25.5424   0.9601 187.6934600 +12.3995867
      2447  25.0012   0.7575 187.7258845 +12.3996332
      2448  26.9224   1.9127 187.7032527 +12.3995206
      2449  26.6620   1.7057 187.7114451 +12.3995920
      2450  26.8387   2.0145 187.6902496 +12.3995518
      2451  23.8940   0.4791 187.7232917 +12.3998231
      2452  25.4739   0.9429 187.6976133 +12.3997267
      2453  25.6679   1.1046 187.7396640 +12.3996516
      2454  24.2802   0.5325 187.7105513 +12.3998274
      2455  26.5539   1.5824 187.6992406 +12.3996656
      2456  26.8282   1.8930 187.7062139 +12.3996716
      2457  26.2886   1.4654 187.7019916 +12.3996797
      2458  26.2869   1.3433 187.7296011 +12.3996959
      2459  25.7860   1.1219 187.7090892 +12.3997688
      2460  25.4101   1.0451 187.6850090 +12.3997398
      2461  23.8850   0.4815 187.7290790 +12.3999128
      2462  25.8678   1.0783 187.6898147 +12.3997862
      2463  25.9620   1.1841 187.7164585 +12.3997946
      2464  23.9806   0.4631 187.6959963 +12.3999387
      2465  25.9282   1.1088 187.7068537 +12.3998280
      2466  22.9556   0.2903 187.7054478 +12.4001186
      2467  24.4628   0.5904 187.6954718 +12.3999486
      2468  22.9119   0.2874 187.6935606 +12.4001098
      2469  24.0719   0.5192 187.7038983 +12.4000216
      2470  26.6022   1.5475 187.7133593 +12.3998281
      2471  24.0861   0.5150 187.7158983 +12.4001008
      2472  24.7528   0.6677 187.7164392 +12.3999944
      2473  26.7649   1.6460 187.6910632 +12.3998693
      2474  25.7982   1.1356 187.6891514 +12.3999937
      2475  23.0438   0.3091 187.7082390 +12.4001899
      2476  22.9227   0.2934 187.7156047 +12.4002359
      2477  24.6953   0.6534 187.7223126 +12.4000797
      2478  24.5188   0.5921 187.6846593 +12.4001253
      2479  24.8219   0.6812 187.7140044 +12.4001068
      2480  24.8449   0.7606 187.7109484 +12.4001589
      2481  26.6821   1.8025 187.7021429 +12.4000129
      2482  25.1932   0.7927 187.6879845 +12.4001205
      2483  23.8076   0.4415 187.7271399 +12.4001527
      2484  24.7173   0.6802 187.6911783 +12.4001301
      2485  25.1818   0.8236 187.7190056 +12.4001532
      2486  25.8886   1.2543 187.7184274 +12.4003016
      2487  25.6600   1.0400 187.7070000 +12.4001269
      2488  22.7599   0.2671 187.7026914 +12.4002983
      2489  24.2882   0.5488 187.7149793 +12.4002076
      2490  22.9932   0.3052 187.7153217 +12.4003546
      2491  25.1954   0.8270 187.7105480 +12.4002103
      2492  24.3923   0.5801 187.7114179 +12.4002824
      2493  23.6793   0.4013 187.6993419 +12.4003843
      2494  24.3198   0.6125 187.7114441 +12.4003272
      2495  22.7079   0.2693 187.7379648 +12.4005352
      2496  25.3125   0.8456 187.6859158 +12.4002934
      2497  25.7919   1.1297 187.7335157 +12.4002680
      2498  23.0998   0.3103 187.6946128 +12.4004621
      2499  25.8076   2.1234 187.6902497 +12.4003300
      2500  22.4167   0.2270 187.7099251 +12.4005522
      2501  24.0230   0.4916 187.6901883 +12.4006142
      2502  25.7916   1.1578 187.6945166 +12.4004129
      2503  24.6238   0.6468 187.7148952 +12.4007979
      2504  26.3088   1.3948 187.6971518 +12.4004130
      2505  26.3224   1.3493 187.7007279 +12.4004574
      2506  26.5140   1.6624 187.7293415 +12.4003947
      2507  26.1026   1.5360 187.7236366 +12.4004922
      2508  26.0427   1.3146 187.6861566 +12.4005104
      2509  25.6448   1.0977 187.6929083 +12.4005363
      2510  26.5289   1.7314 187.7183421 +12.4005470
      2511  25.3147   0.9622 187.6959302 +12.4005799
      2512  24.4555   0.5919 187.7203461 +12.4006699
      2513  26.8044   1.7174 187.7366107 +12.4005425
      2514  24.9156   0.7332 187.7193715 +12.4006583
      2515  24.9231   0.7153 187.6939056 +12.4006748
      2516  24.1168   0.4918 187.6963294 +12.4007728
      2517  25.2767   0.8480 187.6933609 +12.4006807
      2518  25.3098   0.8752 187.7075584 +12.4006856
      2519  24.5975   0.7128 187.7248432 +12.4007913
      2520  24.1126   0.4921 187.6946699 +12.4008241
      2521  24.0868   0.5103 187.7295764 +12.4007900
      2522  24.6921   0.6477 187.6902416 +12.4007953
      2523  25.4115   0.8853 187.6893882 +12.4007293
      2524  26.2530   1.3947 187.6921447 +12.4007070
      2525  24.3516   0.5597 187.7177650 +12.4008418
      2526  26.3974   1.7565 187.7054470 +12.4007923
      2527  26.7060   1.9300 187.7182326 +12.4009407
      2528  25.9799   1.3447 187.7318073 +12.4008020
      2529  22.8034   0.2785 187.7293581 +12.4010048
      2530  24.8392   0.8536 187.7019391 +12.4009258
      2531  25.1914   0.8387 187.7246722 +12.4009729
      2532  25.6565   1.2171 187.7183153 +12.4010172
      2533  25.1914   0.8217 187.7205998 +12.4010196
      2534  26.3118   1.4662 187.7211990 +12.4009738
      2535  26.6950   1.6540 187.7041228 +12.4009841
      2536  23.0450   0.3038 187.7171698 +12.4011612
      2537  26.7059   1.8100 187.7082547 +12.4009672
      2538  23.5093   0.3759 187.6977136 +12.4012041
      2539  23.9779   0.4710 187.6904462 +12.4011721
      2540  26.3988   1.6056 187.7078340 +12.4010798
      2541  22.8287   0.2817 187.6993648 +12.4013080
      2542  24.9839   0.7687 187.7070635 +12.4010974
      2543  26.6544   1.8400 187.6837989 +12.4010223
      2544  25.9137   1.1852 187.7374419 +12.4011012
      2545  26.6156   1.5961 187.7094761 +12.4011175
      2546  26.7375   1.7273 187.6863757 +12.4010808
      2547  23.7089   0.4229 187.7155968 +12.4013127
      2548  26.5858   1.8010 187.7181440 +12.4012545
      2549  25.8681   1.1203 187.7225388 +12.4011931
      2550  24.8555   0.7530 187.7333094 +12.4013049
      2551  26.7397   1.9618 187.7068582 +12.4015488
      2552  25.6985   1.1886 187.7110674 +12.4012952
      2553  25.7008   1.0301 187.7048326 +12.4013160
      2554  25.0591   0.7804 187.7088802 +12.4013364
      2555  25.7418   1.2056 187.7245437 +12.4013786
      2556  24.4909   0.5916 187.7085135 +12.4013789
      2557  25.1318   0.8168 187.6961042 +12.4012790
      2558  26.0083   1.2442 187.7310171 +12.4013156
      2559  25.7188   1.1797 187.7194959 +12.4013662
      2560  25.4066   0.9393 187.7213550 +12.4014370
      2561  22.8166   0.2796 187.7220238 +12.4015741
      2562  26.1133   1.2485 187.7196102 +12.4013695
      2563  25.0039   0.7763 187.6939170 +12.4014909
      2564  25.9148   1.2917 187.6914517 +12.4013902
      2565  26.5378   1.5713 187.6896731 +12.4014036
      2566  22.3310   0.2232 187.7032782 +12.4017569
      2567  25.4018   0.8934 187.7300439 +12.4014894
      2568  26.1616   1.5591 187.7212942 +12.4014833
      2569  26.3958   1.4438 187.7154604 +12.4014438
      2570  26.5344   1.7795 187.7182049 +12.4014456
      2571  26.7870   1.9925 187.7071661 +12.4014486
      2572  23.3432   0.3675 187.7109797 +12.4018128
      2573  23.5886   0.3924 187.6855291 +12.4017415
      2574  23.0035   0.2989 187.7045103 +12.4016704
      2575  23.4348   0.3663 187.7081502 +12.4016775
      2576  24.2934   0.5510 187.7099260 +12.4017068
      2577  26.2745   1.5357 187.7069824 +12.4015760
      2578  23.5744   0.3805 187.7004829 +12.4017595
      2579  26.4646   1.4581 187.6930178 +12.4015569
      2580  25.8819   1.3676 187.7247643 +12.4015921
      2581  26.3008   1.2962 187.6918760 +12.4015595
      2582  25.7322   1.0680 187.7102987 +12.4016345
      2583  25.2862   0.8762 187.7091021 +12.4016798
      2584  25.0480   0.7667 187.7092229 +12.4016149
      2585  25.0367   0.7887 187.7271991 +12.4016821
      2586  26.5597   1.8812 187.7180236 +12.4016298
      2587  26.1023   1.2350 187.7340342 +12.4016442
      2588  24.3494   0.5671 187.6990345 +12.4017584
      2589  26.5921   1.6917 187.7067087 +12.4016199
      2590  26.5652   1.5155 187.6977892 +12.4017067
      2591  25.5084   1.0840 187.7041712 +12.4017143
      2592  25.5457   0.9775 187.7127780 +12.4017710
      2593  26.2883   1.4382 187.6963025 +12.4017227
      2594  25.9434   1.2670 187.7314508 +12.4018327
      2595  26.7017   1.7483 187.7319777 +12.4017206
      2596  23.9814   0.4874 187.7366117 +12.4018911
      2597  23.9000   0.4570 187.7253558 +12.4019582
      2598  24.4644   0.5735 187.6937697 +12.4019478
      2599  23.2576   0.3622 187.7130015 +12.4020598
      2600  22.1339   0.2278 187.7085260 +12.4025515
      2601  26.5282   1.5585 187.6874196 +12.4018207
      2602  23.6573   0.4004 187.6958649 +12.4020886
      2603  26.6106   1.8192 187.7179152 +12.4020137
      2604  22.1882   0.2225 187.6927587 +12.4021906
      2605  26.1665   1.3059 187.7199889 +12.4018739
      2606  23.7797   0.4265 187.7065594 +12.4020640
      2607  25.7001   1.1870 187.6933712 +12.4019508
      2608  26.2883   1.3862 187.7301843 +12.4018498
      2609  26.2287   1.3797 187.6936134 +12.4020229
      2610  26.2158   1.5406 187.6947248 +12.4018733
      2611  22.1315   0.2181 187.7052747 +12.4022920
      2612  26.0207   1.3329 187.7256787 +12.4020977
      2613  26.1765   1.3014 187.7333696 +12.4019532
      2614  26.6648   1.6971 187.7316413 +12.4019461
      2615  25.5869   1.0098 187.7166253 +12.4020272
      2616  24.8431   0.7063 187.7004671 +12.4021716
      2617  24.5533   0.6192 187.7111682 +12.4021747
      2618  24.0207   0.4813 187.7013058 +12.4023088
      2619  25.8719   1.1698 187.7102373 +12.4021963
      2620  25.2989   0.8602 187.7007330 +12.4022316
      2621  23.0098   0.3074 187.7150520 +12.4023888
      2622  25.7017   1.0570 187.7054791 +12.4022025
      2623  25.7182   1.0716 187.6858655 +12.4022028
      2624  25.0478   0.7570 187.6848975 +12.4022356
      2625  25.5206   1.1589 187.7156838 +12.4022536
      2626  26.7132   1.8319 187.7069969 +12.4022310
      2627  24.9400   0.7200 187.6957357 +12.4022946
      2628  24.0366   0.4872 187.7147336 +12.4024041
      2629  25.5163   0.9675 187.6977068 +12.4023525
      2630  24.2740   0.5605 187.7090439 +12.4024776
      2631  26.4619   1.6670 187.7253663 +12.4023783
      2632  23.0977   0.3213 187.7225187 +12.4026089
      2633  26.4608   1.7297 187.7022528 +12.4023423
      2634  26.4525   1.5713 187.7195500 +12.4024149
      2635  24.5935   0.7486 187.6870283 +12.4025114
      2636  25.5925   0.9774 187.7051185 +12.4024089
      2637  21.8753   0.1744 187.6888372 +12.4027814
      2638  26.6348   1.7274 187.7061487 +12.4023924
      2639  25.1349   0.8040 187.7218675 +12.4024725
      2640  25.2802   0.8847 187.7325064 +12.4025505
      2641  26.5684   1.7165 187.7178127 +12.4028230
      2642  25.0516   0.8818 187.7413223 +12.4024944
      2643  23.9753   0.5080 187.7077482 +12.4026018
      2644  25.6439   1.0030 187.7185781 +12.4025224
      2645  24.9641   0.7885 187.7066238 +12.4025698
      2646  26.5668   1.4745 187.6994619 +12.4025776
      2647  24.8434   0.8852 187.7176740 +12.4031548
      2648  23.5236   0.3981 187.7169104 +12.4027612
      2649  25.0215   0.8281 187.7089690 +12.4027427
      2650  25.4726   0.9435 187.7040075 +12.4026859
      2651  22.8703   0.3005 187.7231471 +12.4028305
      2652  23.9327   0.4546 187.7009704 +12.4028141
      2653  23.3670   0.3431 187.6907336 +12.4028281
      2654  23.9441   0.4609 187.7100158 +12.4027695
      2655  26.5298   1.5558 187.7281801 +12.4026241
      2656  24.3088   0.5406 187.6954280 +12.4027972
      2657  23.8141   0.4278 187.7026899 +12.4028695
      2658  26.0948   1.2664 187.7024222 +12.4027452
      2659  26.7446   1.7806 187.7176901 +12.4027455
      2660  21.4171   0.1487 187.7171274 +12.4032149
      2661  24.7231   0.6865 187.7191028 +12.4028582
      2662  22.5825   0.2452 187.6973064 +12.4030561
      2663  24.3879   0.5544 187.6858328 +12.4029064
      2664  24.1239   0.5189 187.7407553 +12.4029657
      2665  25.7171   1.1011 187.7215788 +12.4028874
      2666  24.0412   0.5304 187.7119869 +12.4030165
      2667  22.7980   0.2792 187.7141499 +12.4031505
      2668  23.3407   0.3722 187.7038040 +12.4031361
      2669  23.8172   0.4704 187.7235162 +12.4030236
      2670  25.8262   1.1528 187.6976214 +12.4028908
      2671  25.0385   0.7837 187.7067431 +12.4030143
      2672  24.8350   0.7290 187.6905407 +12.4029383
      2673  24.9331   0.7281 187.7032966 +12.4030197
      2674  26.6281   1.9210 187.7176582 +12.4029130
      2675  24.0115   0.4609 187.6939256 +12.4031604
      2676  26.2130   1.5559 187.7299006 +12.4029545
      2677  26.2099   1.3490 187.7026832 +12.4030132
      2678  21.8880   0.2013 187.7283179 +12.4034897
      2679  26.5676   1.7027 187.7155268 +12.4030454
      2680  25.5860   0.9773 187.6927285 +12.4031666
      2681  24.9062   0.6769 187.6862497 +12.4032174
      2682  25.5748   1.0826 187.7276924 +12.4032428
      2683  24.2948   0.5573 187.7375264 +12.4033425
      2684  25.8033   1.0796 187.6923610 +12.4032562
      2685  23.9019   0.4522 187.6849261 +12.4034463
      2686  26.3913   1.4469 187.7134193 +12.4032536
      2687  23.8021   0.4415 187.6998805 +12.4034378
      2688  25.8493   1.0807 187.7279692 +12.4033260
      2689  25.5514   0.9332 187.6896837 +12.4033846
      2690  23.7493   0.4243 187.7180656 +12.4035138
      2691  26.2779   2.1722 187.7185952 +12.4033545
      2692  24.7080   0.6600 187.7056069 +12.4035082
      2693  25.0754   0.7699 187.6931430 +12.4034738
      2694  25.1388   0.8344 187.7058081 +12.4035050
      2695  26.2866   1.4312 187.7194503 +12.4034654
      2696  25.5299   0.9846 187.7070448 +12.4035114
      2697  22.7465   0.2696 187.7234655 +12.4037635
      2698  23.1901   0.3207 187.7058147 +12.4037712
      2699  25.5219   0.9459 187.6871248 +12.4036476
      2700  26.5408   1.7426 187.7136305 +12.4035711
      2701  26.5795   1.7926 187.6988627 +12.4035705
      2702  24.7943   0.6820 187.7054667 +12.4036872
      2703  24.4407   0.6002 187.7319577 +12.4037229
      2704  26.2964   1.4818 187.7229519 +12.4035986
      2705  23.5125   0.3734 187.6950742 +12.4038086
      2706  24.8726   0.7100 187.7117350 +12.4037169
      2707  24.6657   0.6444 187.7050790 +12.4038036
      2708  23.7229   0.4313 187.7017717 +12.4038612
      2709  24.1892   0.5738 187.7053978 +12.4039660
      2710  26.8831   1.9704 187.7018303 +12.4036875
      2711  26.3760   1.5167 187.7102460 +12.4037522
      2712  25.4004   0.8841 187.7135956 +12.4038005
      2713  26.5559   1.8055 187.7173639 +12.4038855
      2714  23.2526   0.3273 187.6976237 +12.4040489
      2715  24.9639   0.8561 187.7355658 +12.4039487
      2716  24.1370   0.5113 187.7008566 +12.4039892
      2717  22.7094   0.2617 187.7032086 +12.4041451
      2718  24.7423   1.1452 187.7142517 +12.4039919
      2719  25.2677   0.8552 187.7316579 +12.4039713
      2720  22.5610   0.2685 187.6876241 +12.4041798
      2721  24.2952   0.5172 187.6884686 +12.4040620
      2722  25.6531   1.0325 187.7281003 +12.4040272
      2723  26.5580   1.7333 187.7262424 +12.4039789
      2724  26.6715   1.6721 187.6854960 +12.4040317
      2725  22.4912   0.2365 187.7014442 +12.4043954
      2726  22.7550   0.2765 187.7206991 +12.4043342
      2727  24.5180   0.6007 187.6854703 +12.4041969
      2728  25.6908   1.1845 187.7172530 +12.4042962
      2729  26.4507   1.6345 187.7058429 +12.4041813
      2730  26.7969   2.0154 187.6925718 +12.4041898
      2731  24.3420   0.5587 187.7118096 +12.4043692
      2732  24.9923   0.7844 187.7011505 +12.4042922
      2733  25.6424   0.9556 187.6862635 +12.4043477
      2734  24.2973   0.5349 187.6965485 +12.4044325
      2735  23.9887   0.4751 187.7101352 +12.4044626
      2736  24.1559   0.6126 187.7208456 +12.4048468
      2737  26.7550   2.1080 187.7170738 +12.4048714
      2738  25.6510   1.1308 187.7323864 +12.4044815
      2739  26.1691   1.3888 187.6961837 +12.4044365
      2740  26.0471   1.2470 187.6904433 +12.4044361
      2741  24.8270   0.6682 187.6964183 +12.4045217
      2742  22.5552   0.2625 187.7307524 +12.4046623
      2743  22.6035   0.2512 187.7051873 +12.4047257
      2744  23.1220   0.3236 187.7239681 +12.4046628
      2745  23.7875   0.4306 187.6961705 +12.4046216
      2746  26.4499   1.4699 187.7292301 +12.4044368
      2747  24.3616   0.5731 187.7108998 +12.4046115
      2748  26.7439   1.7677 187.6884706 +12.4044240
      2749  26.4144   1.4938 187.7099053 +12.4045686
      2750  24.2891   0.5291 187.6847008 +12.4046683
      2751  23.6303   0.4030 187.7238052 +12.4047126
      2752  26.4127   1.5432 187.7405527 +12.4046298
      2753  26.7785   1.8324 187.7061759 +12.4045628
      2754  23.7486   0.4105 187.7023584 +12.4047469
      2755  26.5811   1.6104 187.7136830 +12.4046128
      2756  23.2468   0.3379 187.7027377 +12.4048388
      2757  26.4992   1.4078 187.6976469 +12.4046215
      2758  24.8919   0.6947 187.6934358 +12.4047584
      2759  24.0955   0.5006 187.7330213 +12.4048375
      2760  26.0005   1.1894 187.6915505 +12.4047386
      2761  26.8243   1.7090 187.6941265 +12.4047092
      2762  25.3951   0.8838 187.6877674 +12.4048145
      2763  26.0973   1.1412 187.6880914 +12.4047793
      2764  25.9738   1.1395 187.7147129 +12.4048140
      2765  26.6280   1.6483 187.6972480 +12.4048210
      2766  22.9717   0.2899 187.6955358 +12.4050807
      2767  26.2765   1.5608 187.7118940 +12.4048462
      2768  24.6416   0.6516 187.7013177 +12.4050238
      2769  21.7992   0.1733 187.6895146 +12.4053070
      2770  26.5131   1.5344 187.6989757 +12.4050198
      2771  21.7685   0.1649 187.6902478 +12.4053432
      2772  24.8841   0.7200 187.7317626 +12.4050706
      2773  24.6101   0.6915 187.7050336 +12.4055665
      2774  22.8954   0.2895 187.7148599 +12.4053228
      2775  22.6561   0.2524 187.7143237 +12.4052851
      2776  24.0044   0.4778 187.7075978 +12.4052987
      2777  25.4010   1.1683 187.7141485 +12.4051765
      2778  26.6102   1.8531 187.7169800 +12.4051540
      2779  23.3406   0.3438 187.7014531 +12.4053575
      2780  24.5647   0.6590 187.7203546 +12.4053360
      2781  26.5756   1.6130 187.7392635 +12.4051878
      2782  25.9141   1.3534 187.7169440 +12.4053591
      2783  24.0140   0.4688 187.6952471 +12.4054198
      2784  23.9093   0.4628 187.7336025 +12.4054822
      2785  25.1015   0.8077 187.7342233 +12.4054260
      2786  24.1449   0.5101 187.7094617 +12.4054606
      2787  22.3017   0.2300 187.6928069 +12.4058066
      2788  24.3015   0.5424 187.7208698 +12.4054607
      2789  26.7580   1.7557 187.7235742 +12.4052990
      2790  22.8973   0.3225 187.6943693 +12.4062347
      2791  26.5096   1.5014 187.7386981 +12.4053396
      2792  22.6574   0.2594 187.7223513 +12.4056509
      2793  23.2370   0.3724 187.6925228 +12.4064894
      2794  21.9870   0.1905 187.7048149 +12.4057645
      2795  24.2642   0.5352 187.7032272 +12.4055292
      2796  24.6154   0.7138 187.7261719 +12.4055091
      2797  25.9515   1.1801 187.7160071 +12.4054581
      2798  25.8906   1.0955 187.6915787 +12.4055109
      2799  24.0962   0.5001 187.7059117 +12.4057580
      2800  26.1118   1.3282 187.6876280 +12.4055642
      2801  26.3363   1.3726 187.6972098 +12.4055803
      2802  25.7422   1.0804 187.6883742 +12.4056289
      2803  25.6321   1.1190 187.7169252 +12.4057170
      2804  23.8952   0.4764 187.7299242 +12.4057678
      2805  25.6106   1.0404 187.7096634 +12.4056408
      2806  23.5786   0.3794 187.6909140 +12.4058252
      2807  26.2966   1.3448 187.7398169 +12.4056611
      2808  25.7881   1.2067 187.7105691 +12.4057009
      2809  25.9284   1.1935 187.6960640 +12.4057694
      2810  26.7543   1.8500 187.6974184 +12.4057998
      2811  25.9580   1.2919 187.6883313 +12.4057452
      2812  24.3552   0.5679 187.7037509 +12.4058631
      2813  21.2887   0.1397 187.7198236 +12.4064273
      2814  25.0468   0.7290 187.6875833 +12.4058949
      2815  24.5398   0.6039 187.7335184 +12.4059254
      2816  23.2491   0.3446 187.7035432 +12.4060088
      2817  25.1499   0.8274 187.7240558 +12.4059406
      2818  26.6080   1.6447 187.6972810 +12.4058972
      2819  24.6565   0.7722 187.6955543 +12.4059625
      2820  26.4508   1.3777 187.6987181 +12.4059015
      2821  25.3214   0.8650 187.7023922 +12.4059698
      2822  23.4869   0.3748 187.7020480 +12.4061811
      2823  23.6478   0.3871 187.7215005 +12.4060477
      2824  23.8157   0.4238 187.7006275 +12.4061621
      2825  22.7962   0.3225 187.7286388 +12.4062441
      2826  25.2291   0.8719 187.7404555 +12.4060800
      2827  24.0074   0.4854 187.7186567 +12.4061714
      2828  26.7008   1.6420 187.6959546 +12.4060077
      2829  23.8080   0.4284 187.6958130 +12.4062652
      2830  24.9367   0.7929 187.7012053 +12.4062548
      2831  23.9592   0.4626 187.7037916 +12.4062556
      2832  26.3823   1.5404 187.6889234 +12.4061840
      2833  26.6453   1.6828 187.7077830 +12.4060928
      2834  25.7296   1.2414 187.7242874 +12.4062087
      2835  26.6176   1.7735 187.6887050 +12.4061824
      2836  25.1635   1.0033 187.7164141 +12.4062459
      2837  23.7113   0.4394 187.7320624 +12.4064253
      2838  25.4737   1.0659 187.7370721 +12.4062418
      2839  22.6631   0.2520 187.6980738 +12.4065015
      2840  26.4522   1.4409 187.7034614 +12.4062566
      2841  24.0948   0.4993 187.7057411 +12.4064142
      2842  22.5022   0.2423 187.7151251 +12.4065788
      2843  26.0988   1.3507 187.7021695 +12.4176918
      2844  25.4734   1.1837 187.7139373 +12.4159295
      2845  24.2845   0.5364 187.7285996 +12.4189906
      2846  23.9119   0.4488 187.6947465 +12.4147663
      2847  22.5723   0.2549 187.7347644 +12.4097716
      2848  26.1904   1.4376 187.7166475 +12.4137748
      2849  25.0633   0.7566 187.6843388 +12.4071333
      2850  25.5129   1.0376 187.7378925 +12.4166670
      2851  26.2013   1.2802 187.6921949 +12.4111522
      2852  24.7667   0.7558 187.7113191 +12.4082877
      2853  26.7645   2.0253 187.7266109 +12.4071968
      2854  26.2037   1.3365 187.7078518 +12.4117934
      2855  24.6742   0.7162 187.6844596 +12.4081501
      2856  26.9570   1.9328 187.7177462 +12.4087070
      2857  25.9003   1.1155 187.6955210 +12.4083246
      2858  25.3194   0.9000 187.7071272 +12.4080263
      2859  23.0769   0.3156 187.7233083 +12.4162796
      2860  26.2503   1.3980 187.6853542 +12.4140217
      2861  23.8608   0.4597 187.7311828 +12.4087249
      2862  25.6223   1.0163 187.7038436 +12.4079519
      2863  23.5416   0.3971 187.7244934 +12.4175956
      2864  26.9081   1.7716 187.7096181 +12.4091520
      2865  25.0696   0.7569 187.7210920 +12.4165224
      2866  22.7548   0.2857 187.7068138 +12.4078916
      2867  26.1697   1.3545 187.7257850 +12.4099341
      2868  26.2860   1.3570 187.7080107 +12.4088143
      2869  21.9492   0.1867 187.7332145 +12.4087534
      2870  22.7573   0.2731 187.7379999 +12.4186067
      2871  24.3491   0.5638 187.7179062 +12.4081418
      2872  24.6214   0.6176 187.6932338 +12.4089907
      2873  23.7460   0.4225 187.7180514 +12.4174409
      2874  22.3820   0.2203 187.6932662 +12.4176870
      2875  26.6329   1.5059 187.7190818 +12.4169735
      2876  25.3404   0.8838 187.7148772 +12.4176346
      2877  25.7862   1.1535 187.7390372 +12.4080688
      2878  24.6621   0.6237 187.6950958 +12.4174257
      2879  24.2344   0.5264 187.6892880 +12.4162321
      2880  26.0460   1.3032 187.6970994 +12.4174597
      2881  26.7292   2.0742 187.7140667 +12.4150405
      2882  23.5111   0.3750 187.6989994 +12.4174912
      2883  26.4016   1.3802 187.6891410 +12.4170726
      2884  25.9708   1.1457 187.7340303 +12.4087560
      2885  23.1679   0.3155 187.7055501 +12.4173507
      2886  25.1402   0.8537 187.7217745 +12.4085256
      2887  23.4429   0.3653 187.6988380 +12.4097800
      2888  26.3039   1.5866 187.7337335 +12.4154453
      2889  25.1549   0.9031 187.7158682 +12.4187610
      2890  26.5177   1.5487 187.7018887 +12.4068356
      2891  24.1962   0.5596 187.7413570 +12.4171947
      2892  25.9672   1.1484 187.6883329 +12.4109191
      2893  22.7983   0.2721 187.7064198 +12.4135941
      2894  21.7118   0.1630 187.6918269 +12.4096536
      2895  26.2094   1.3540 187.7330791 +12.4063535
      2896  23.5166   0.3892 187.7311370 +12.4084801
      2897  23.8566   0.4372 187.6865580 +12.4078530
      2898  25.2593   0.8547 187.7001570 +12.4163785
      2899  24.6564   0.6283 187.6942874 +12.4065583
      2900  23.3782   0.3780 187.7197278 +12.4174741
      2901  24.5213   0.5965 187.7245753 +12.4085381
      2902  25.5914   1.0469 187.7164096 +12.4150716
      2903  25.6089   1.0214 187.7167340 +12.4161561
      2904  24.1701   0.4946 187.7140908 +12.4168844
      2905  22.7429   0.4659 187.7408818 +12.4152182
      2906  25.4970   0.9480 187.7205247 +12.4169019
      2907  24.2022   0.5710 187.7199769 +12.4101083
      2908  25.9663   1.1622 187.7024024 +12.4097435
      2909  23.3337   0.3517 187.7289638 +12.4092516
      2910  24.4116   0.5835 187.7137431 +12.4090933
      2911  24.6903   0.6677 187.7296558 +12.4081147
      2912  24.8392   0.6805 187.6976155 +12.4169567
      2913  24.1590   0.5018 187.6877177 +12.4097493
      2914  23.6417   0.4341 187.6845626 +12.4098089
      2915  25.9286   1.1398 187.6853715 +12.4171124
      2916  25.5123   0.9929 187.6983411 +12.4169483
      2917  25.5826   0.9148 187.6973116 +12.4167799
      2918  25.9090   1.1376 187.6881075 +12.4103477
      2919  26.5953   1.7600 187.7164737 +12.4069037
      2920  26.7163   1.8408 187.7165693 +12.4065718
      2921  25.4254   0.9397 187.7339954 +12.4173753
      2922  25.8512   1.3041 187.7076682 +12.4127850
      2923  24.6148   0.6254 187.7149796 +12.4099145
      2924  25.3780   0.9923 187.7187514 +12.4136544
      2925  25.6384   1.0299 187.7416380 +12.4169406
      2926  24.1087   0.4799 187.6999561 +12.4088978
      2927  22.3928   0.2348 187.7271052 +12.4176373
      2928  25.3365   0.8742 187.6898406 +12.4159793
      2929  22.7495   0.2935 187.6913040 +12.4171789
      2930  23.9059   0.4651 187.7415434 +12.4171280
      2931  25.4880   0.9099 187.6860807 +12.4158090
      2932  25.6210   1.1547 187.7153086 +12.4109372
      2933  26.6384   1.5845 187.6916636 +12.4101118
      2934  25.4724   0.9287 187.7196928 +12.4185457
      2935  24.3492   0.5565 187.7212779 +12.4159261
      2936  25.8070   1.0901 187.7258181 +12.4165350
      2937  25.5101   0.9717 187.7265258 +12.4082954
      2938  20.9492   0.1091 187.6976744 +12.4160603
      2939  25.0949   1.1121 187.6884324 +12.4175039
      2940  26.5809   1.6978 187.7149863 +12.4119054
      2941  24.4974   2.2739 187.7286338 +12.4198288
      2942  26.4661   1.5317 187.7163316 +12.4096876
      2943  24.1990   0.5114 187.6901752 +12.4064846
      2944  24.7450   0.6822 187.7277015 +12.4065569
      2945  24.6398   0.6724 187.7107678 +12.4100021
      2946  22.9219   0.2875 187.7178138 +12.4144659
      2947  26.3335   1.5618 187.7141008 +12.4154338
      2948  25.2155   0.8547 187.7332139 +12.4091318
      2949  25.3859   0.8652 187.7095632 +12.4110988
      2950  25.5821   0.9436 187.6911105 +12.4067303
      2951  24.8775   6.2455 187.7133591 +12.4173520
      2952  24.9666   0.7799 187.7316545 +12.4069067
      2953  26.6710   2.2410 187.6847105 +12.4157086
      2954  26.5294   1.5082 187.7091333 +12.4065953
      2955  23.9550   0.4590 187.7061117 +12.4151197
      2956  26.6082   1.8719 187.7158954 +12.4088988
      2957  26.6691   1.8509 187.7167770 +12.4063323
      2958  25.8127   1.3475 187.7422501 +12.4190321
      2959  26.2362   1.2853 187.6982271 +12.4178027
      2960  26.1742   1.2643 187.7379423 +12.4127851
      2961  23.9502   0.4633 187.7167562 +12.4084337
      2962  23.4149   0.3585 187.7327810 +12.4146049
      2963  26.3575   1.4036 187.7191188 +12.4150895
      2964  24.4681   0.5824 187.7095473 +12.4146476
      2965  26.7122   1.8465 187.7193356 +12.4106327
      2966  25.9624   1.0968 187.6887994 +12.4146434
      2967  26.8240   1.7188 187.7276812 +12.4164592
      2968  22.4415   0.2264 187.6996928 +12.4170924
      2969  25.8158   1.5246 187.7122546 +12.4147145
      2970  25.3681   0.8889 187.7044781 +12.4068529
      2971  23.7449   0.4202 187.6880536 +12.4124120
      2972  25.6049   1.1028 187.7044755 +12.4094662
      2973  25.4253   1.0186 187.7071100 +12.4135452
      2974  25.1925   0.8238 187.7182209 +12.4093787
      2975  25.7580   1.1829 187.7031248 +12.4129123
      2976  23.7990   0.4465 187.7376111 +12.4070799
      2977  25.2491   0.8171 187.6995783 +12.4094894
      2978  24.3263   0.5378 187.6888151 +12.4080909
      2979  25.6437   1.0471 187.7263322 +12.4150980
      2980  23.4663   0.3725 187.7085723 +12.4080515
      2981  26.3912   1.9823 187.7093794 +12.4161025
      2982  24.0847   0.4978 187.7279388 +12.4149134
      2983  26.1060   1.3888 187.7378669 +12.4131194
      2984  22.6811   0.2611 187.7041230 +12.4102154
      2985  26.1511   1.4212 187.7394198 +12.4166247
      2986  24.3458   0.5510 187.7016821 +12.4108785
      2987  26.6371   1.9146 187.7023218 +12.4103258
      2988  24.8792   0.7652 187.7153765 +12.4108103
      2989  23.6782   0.4190 187.7393533 +12.4105885
      2990  23.3227   0.3494 187.7210728 +12.4145326
      2991  25.6467   1.0682 187.7273864 +12.4139790
      2992  26.6265   1.7246 187.7014575 +12.4126890
      2993  26.2086   1.3859 187.7251984 +12.4081542
      2994  26.2491   2.0416 187.7097126 +12.4182212
      2995  25.9184   1.3628 187.7283650 +12.4083607
      2996  24.6893   0.7103 187.7220926 +12.4150083
      2997  26.1374   1.3806 187.7381191 +12.4133683
      2998  24.5706   0.7699 187.7065594 +12.4129517
      2999  25.3279   0.8717 187.7123743 +12.4140690
      3000  26.4595   1.7627 187.7145603 +12.4134136
      3001  25.6895   1.0862 187.7170813 +12.4135057
      3002  26.3774   1.4976 187.7371621 +12.4144430
      3003  24.4784   0.6586 187.6974788 +12.4086613
      3004  24.8404   0.6894 187.7216954 +12.4154940
      3005  24.8870   0.7064 187.7290433 +12.4107544
      3006  26.4051   1.3381 187.6959848 +12.4104547
      3007  24.4551   0.5833 187.7116131 +12.4135887
      3008  23.6494   0.4065 187.7351332 +12.4083899
      3009  25.4408   0.9094 187.6964689 +12.4091725
      3010  23.7885   0.5102 187.7384542 +12.4133875
      3011  23.3915   0.3463 187.7082054 +12.4108845
      3012  22.7190   0.2648 187.7344986 +12.4132042
      3013  24.4621   0.5983 187.7383763 +12.4109674
      3014  25.5330   0.9587 187.6865703 +12.4138559
      3015  26.3083   1.6232 187.7197259 +12.4138093
      3016  26.0722   1.3115 187.7310629 +12.4194172
      3017  25.9250   1.1917 187.6913264 +12.4137587
      3018  21.2596   0.1386 187.7352040 +12.4134502
      3019  25.5539   0.9677 187.7114262 +12.4079443
      3020  24.3430   0.5958 187.7257834 +12.4135891
      3021  25.6128   1.0969 187.7405403 +12.4136602
      3022  23.1179   0.3155 187.7143399 +12.4135275
      3023  25.8955   1.2031 187.7315552 +12.4086754
      3024  24.0843   0.5069 187.7379645 +12.4129828
      3025  26.0333   1.1966 187.7354240 +12.4171348
      3026  26.2548   1.4460 187.7264766 +12.4135289
      3027  26.4545   1.4289 187.7155197 +12.4077398
      3028  26.0525   1.2693 187.6963366 +12.4166215
      3029  24.5878   0.6615 187.7012041 +12.4113395
      3030  26.3751   1.4005 187.7173996 +12.4126054
      3031  24.8622   0.7024 187.7136250 +12.4132055
      3032  22.5811   0.2747 187.7305524 +12.4111704
      3033  25.9482   1.1269 187.6893174 +12.4131567
      3034  24.9793   0.7265 187.6894217 +12.4129709
      3035  26.1387   1.3086 187.6971356 +12.4086041
      3036  25.2185   0.8427 187.7137629 +12.4087186
      3037  24.8147   0.7230 187.7390182 +12.4122709
      3038  26.6483   1.6350 187.7342481 +12.4126755
      3039  26.5666   1.6560 187.6939611 +12.4131142
      3040  23.3679   0.3629 187.6943545 +12.4132175
      3041  25.7201   1.0153 187.6898672 +12.4128152
      3042  26.2082   1.3501 187.7106117 +12.4123140
      3043  24.4187   0.5434 187.7018318 +12.4128780
      3044  24.4211   0.5821 187.6993059 +12.4113763
      3045  26.7676   1.6415 187.7286795 +12.4157765
      3046  24.2139   0.5262 187.7157750 +12.4126924
      3047  25.0926   0.7621 187.7090509 +12.4111272
      3048  26.7424   1.8828 187.6976908 +12.4104264
      3049  26.4487   1.5604 187.7149795 +12.4124500
      3050  26.5803   1.7734 187.7195903 +12.4124945
      3051  24.2668   0.5477 187.7217418 +12.4066793
      3052  26.1210   1.2229 187.6989905 +12.4125553
      3053  22.3052   0.2294 187.7167015 +12.4140933
      3054  25.9739   1.1635 187.7078390 +12.4137301
      3055  25.7734   1.1671 187.7340456 +12.4101427
      3056  23.9892   0.4546 187.7001365 +12.4181464
      3057  26.5914   2.0679 187.7124001 +12.4120606
      3058  25.9287   1.3238 187.7380318 +12.4131653
      3059  24.1592   0.4877 187.6928463 +12.4118512
      3060  24.9036   0.7185 187.7102953 +12.4137461
      3061  26.7689   1.8622 187.7401284 +12.4140644
      3062  24.1008   0.4948 187.7072818 +12.4123216
      3063  26.6588   1.5542 187.7231172 +12.4123839
      3064  24.9464   0.7278 187.7197089 +12.4166785
      3065  25.6241   1.1742 187.7123231 +12.4119969
      3066  26.6812   1.7612 187.7355456 +12.4103827
      3067  24.8297   0.6666 187.6866832 +12.4124795
      3068  26.4723   1.6632 187.7143700 +12.4116751
      3069  26.7528   1.9067 187.7141684 +12.4119071
      3070  24.3437   0.5466 187.7024702 +12.4132208
      3071  25.3119   0.9913 187.7141485 +12.4151595
      3072  23.3154   0.3600 187.6961161 +12.4115476
      3073  26.0107   1.3533 187.7178384 +12.4137072
      3074  23.9250   0.4536 187.7026075 +12.4132721
      3075  24.7970   0.6895 187.7302854 +12.4190186
      3076  21.7913   0.1678 187.6884998 +12.4071970
      3077  24.1594   0.5733 187.7351951 +12.4132514
      3078  25.8542   1.4209 187.6977386 +12.4115086
      3079  25.1705   1.0215 187.7139903 +12.4116583
      3080  24.7522   0.6828 187.7283630 +12.4116667
      3081  25.3290   0.8830 187.7145476 +12.4167519
      3082  25.1931   1.2303 187.7165283 +12.4136250
      3083  25.0705   0.7675 187.6931652 +12.4115894
      3084  25.0408   0.9773 187.7140977 +12.4153343
      3085  23.4962   0.3696 187.7041831 +12.4117603
      3086  25.3901   1.4484 187.7095131 +12.4160701
      3087  25.3142   0.8375 187.7032307 +12.4119322
      3088  20.8529   0.1043 187.6914966 +12.4133355
      3089  25.6723   1.0524 187.6917441 +12.4132489
      3090  26.7473   1.8102 187.6956810 +12.4131624
      3091  24.5047   0.6974 187.6936840 +12.4115579
      3092  24.1414   0.5076 187.7235029 +12.4079590
      3093  25.4015   1.0380 187.7200351 +12.4114616
      3094  23.0905   0.3071 187.7013426 +12.4155766
      3095  24.8628   0.7168 187.7259031 +12.4115669
      3096  26.6870   1.8702 187.7222170 +12.4110516
      3097  25.4152   0.8739 187.6938388 +12.4139651
      3098  24.4952   0.6013 187.7325888 +12.4084803
      3099  21.0212   0.1264 187.7161543 +12.4086556
      3100  25.6395   0.9842 187.6987297 +12.4133567
      3101  24.4170   0.5587 187.6880875 +12.4141046
      3102  24.2594   0.5407 187.7215914 +12.4083703
      3103  25.3901   0.9470 187.7168260 +12.4113574
      3104  22.7254   0.2716 187.7021990 +12.4074314
      3105  26.6198   1.7895 187.6964775 +12.4113514
      3106  26.7803   1.8134 187.6926609 +12.4128447
      3107  25.8265   1.1535 187.7053146 +12.4082590
      3108  23.9175   0.4486 187.7091723 +12.4141441
      3109  26.6093   1.8400 187.7378945 +12.4132365
      3110  26.1505   1.3064 187.7393782 +12.4113835
      3111  24.2089   0.5343 187.7377709 +12.4113890
      3112  26.3887   1.4844 187.7077146 +12.4133889
      3113  26.1041   1.3551 187.7181974 +12.4111966
      3114  26.2594   1.3651 187.7367547 +12.4108573
      3115  24.3514   0.5974 187.7388901 +12.4130428
      3116  24.7141   0.6817 187.7047904 +12.4128003
      3117  26.6795   1.6174 187.7151986 +12.4132575
      3118  25.4788   0.9273 187.7119311 +12.4101810
      3119  24.2173   0.5287 187.7009427 +12.4108984
      3120  24.0186   0.4716 187.7237776 +12.4128127
      3121  24.1263   0.5058 187.7120621 +12.4110111
      3122  24.0045   0.4684 187.7074317 +12.4083465
      3123  24.4945   0.5828 187.6933629 +12.4145469
      3124  22.4098   0.2242 187.6857628 +12.4142594
      3125  23.5100   0.3846 187.7147748 +12.4076122
      3126  24.9893   0.7343 187.6909061 +12.4104816
      3127  24.8303   0.6737 187.7121039 +12.4106201
      3128  22.8041   0.2697 187.6936740 +12.4103776
      3129  25.3720   0.8717 187.7095304 +12.4103527
      3130  24.6438   0.6295 187.7308077 +12.4106352
      3131  26.2932   1.3800 187.7235234 +12.4136913
      3132  25.4701   0.9479 187.7327685 +12.4106651
      3133  26.3980   1.4255 187.7029862 +12.4096051
      3134  23.9899   0.4673 187.7062225 +12.4146917
      3135  24.2606   0.5312 187.7018257 +12.4119499
      3136  24.7771   0.6684 187.7188666 +12.4102460
      3137  26.1967   1.3739 187.7312379 +12.4131816
      3138  24.6542   0.6474 187.7140930 +12.4103466
      3139  24.3050   0.5490 187.7038764 +12.4102173
      3140  26.4903   1.7863 187.7219326 +12.4099267
      3141  23.5913   0.4177 187.7065783 +12.4127307
      3142  25.7091   1.0184 187.7057011 +12.4160624
      3143  22.3512   0.2116 187.6875152 +12.4101602
      3144  24.6010   0.6355 187.7160129 +12.4084408
      3145  26.7397   1.6509 187.6915057 +12.4101205
      3146  25.0198   0.7747 187.7305087 +12.4094116
      3147  26.0031   1.1958 187.7076919 +12.4100093
      3148  24.3138   0.5288 187.7017501 +12.4148719
      3149  25.2182   0.8507 187.7098868 +12.4101137
      3150  23.1881   0.3206 187.7038580 +12.4166619
      3151  24.9570   0.7672 187.7036790 +12.4095230
      3152  26.5718   1.7829 187.7144243 +12.4117233
      3153  23.2026   0.3188 187.7002551 +12.4159049
      3154  25.3775   0.8900 187.7074508 +12.4065675
      3155  26.6452   1.9456 187.7193586 +12.4101351
      3156  25.1242   0.9462 187.7263875 +12.4094945
      3157  21.7747   0.1579 187.6862734 +12.4097250
      3158  26.8211   1.9042 187.7157702 +12.4092581
      3159  22.2679   0.2223 187.7278922 +12.4093623
      3160  26.4687   1.4846 187.6920687 +12.4098271
      3161  23.2640   0.3386 187.6985048 +12.4070167
      3162  23.5836   0.3961 187.7107580 +12.4093339
      3163  23.9621   0.4784 187.7143674 +12.4094762
      3164  24.6672   0.6554 187.7209588 +12.4149556
      3165  24.6822   1.6517 187.7305642 +12.4102161
      3166  26.4727   1.4372 187.6991521 +12.4164416
      3167  25.8211   1.1972 187.7281527 +12.4090447
      3168  26.0524   1.3488 187.7082849 +12.4091561
      3169  23.3954   0.3568 187.6987491 +12.4082265
      3170  25.4559   0.9352 187.7219631 +12.4085003
      3171  25.5047   1.2459 187.7142087 +12.4149324
      3172  25.5222   0.9321 187.6854468 +12.4095404
      3173  25.1520   0.7990 187.7053582 +12.4138428
      3174  24.0537   0.7727 187.6961561 +12.4089754
      3175  26.1199   1.3430 187.6942550 +12.4106506
      3176  24.6010   0.6102 187.6965445 +12.4082028
      3177  25.5092   0.9421 187.7002492 +12.4079350
      3178  22.4297   0.2353 187.7380200 +12.4200382
      3179  24.8460   0.6825 187.6858618 +12.4067149
      3180  24.5343   0.6066 187.7041863 +12.4094288
      3181  25.8984   1.2341 187.7406347 +12.4098865
      3182  26.5450   1.6800 187.6936851 +12.4162926
      3183  24.7359   0.6824 187.7389814 +12.4191206
      3184  24.5879   0.6873 187.7286716 +12.4120999
      3185  22.4835   0.2213 187.6970422 +12.4148416
      3186  26.2408   1.2530 187.6911008 +12.4154891
      3187  24.7919   0.6724 187.7151186 +12.4148303
      3188  26.5944   1.7735 187.7153736 +12.4111091
      3189  26.0116   1.1983 187.7275336 +12.4141765
      3190  25.5506   1.0138 187.6944824 +12.4163131
      3191  26.5975   1.6764 187.7152413 +12.4115484
      3192  23.1447   0.3573 187.7347431 +12.4070952
      3193  22.3249   0.2230 187.7260366 +12.4114169
      3194  26.5949   1.6448 187.7293462 +12.4164695
      3195  23.9668   0.4528 187.7241323 +12.4121188
      3196  25.8003   1.1504 187.7208140 +12.4154820
      3197  24.7062   0.6823 187.7235450 +12.4183299
      3198  26.1917   1.2843 187.7334993 +12.4082928
      3199  22.8452   0.2888 187.7056205 +12.4079389
      3200  26.0176   1.1523 187.6905687 +12.4092976
      3201  26.3908   1.4369 187.7357176 +12.4195357
      3202  25.4138   0.9108 187.7043113 +12.4089878
      3203  22.4667   0.2591 187.6987544 +12.4085571
      3204  25.1161   0.7741 187.7282862 +12.4083460
      3205  23.5374   0.3820 187.7171452 +12.4159885
      3206  25.9443   1.1393 187.6985864 +12.4080635
      3207  24.1583   0.5143 187.7304576 +12.4123938
      3208  23.5680   0.3803 187.6929078 +12.4071029
      3209  24.7748   0.6619 187.6878509 +12.4096796
      3210  24.6424   0.6431 187.7284343 +12.4178304
      3211  26.8059   1.6973 187.7015089 +12.4181706
      3212  23.8466   0.4215 187.7059777 +12.4174448
      3213  25.9218   1.0614 187.6907384 +12.4087260
      3214  26.3516   1.3287 187.6877844 +12.4078888
      3215  23.8926   0.4575 187.7065108 +12.4068937
      3216  24.9507   0.7932 187.7163687 +12.4075656
      3217  23.6836   0.4364 187.7019429 +12.4161701
      3218  24.4328   0.5847 187.7248196 +12.4128382
      3219  22.3666   0.2293 187.7260847 +12.4075284
      3220  25.2011   0.7987 187.6922976 +12.4078000
      3221  24.8828   0.8429 187.7138039 +12.4162407
      3222  25.4329   0.8961 187.6972863 +12.4084642
      3223  25.7695   1.3074 187.7122363 +12.4151516
      3224  26.5050   1.6257 187.7058942 +12.4089947
      3225  23.0587   0.3209 187.7411583 +12.4075086
      3226  22.8519   0.2762 187.7160295 +12.4071468
      3227  24.9634   0.7274 187.6942882 +12.4071807
      3228  25.4781   1.1032 187.7379079 +12.4168548
      3229  26.0376   1.2632 187.7059115 +12.4107663
      3230  25.2648   0.8654 187.7161633 +12.4186218
      3231  26.3706   1.3475 187.7011136 +12.4093119
      3232  25.4327   0.8911 187.6989887 +12.4127551
      3233  23.7897   0.4223 187.7038771 +12.4121650
      3234  24.9892   0.7224 187.6861953 +12.4066504
      3235  25.9658   1.2682 187.7121014 +12.4067560
      3236  26.0864   1.2892 187.7214750 +12.4075488
      3237  24.2394   0.5284 187.7207735 +12.4066076
      3238  23.5164   0.3806 187.7111593 +12.4068371
      3239  24.5087   0.6676 187.7042142 +12.4079275
      3240  22.4570   0.2414 187.7355334 +12.4130842
      3241  22.6070   0.2498 187.7014999 +12.4106728
      3242  26.2653   1.7189 187.7365694 +12.4071595
      3243  26.4299   1.3625 187.7139432 +12.4113165
      3244  25.6864   0.9960 187.6892718 +12.4064256
      3245  22.2037   0.2160 187.7201724 +12.4125693
      3246  25.7616   1.2778 187.7229915 +12.4162162
      3247  24.8712   0.8154 187.6942043 +12.4157281
      3248  24.3236   0.5543 187.7089273 +12.4065855
      3249  23.3695   0.3443 187.6863506 +12.4067384
      3250  24.4266   0.5786 187.7239095 +12.4180296
      3251  26.5787   1.7922 187.7160931 +12.4081809
      3252  25.2777   0.8562 187.7132354 +12.4073519
      3253  23.4403   0.3725 187.7107658 +12.4094938
      3254  24.3810   0.5826 187.7284414 +12.4077675
      3255  25.6536   1.0314 187.7144940 +12.4147940
      3256  24.6374   0.6401 187.6902778 +12.4069472
      3257  25.8374   1.0989 187.6967527 +12.4088704
      3258  24.6826   0.6342 187.6882248 +12.4079854
      3259  26.5814   1.5930 187.7325408 +12.4123629
      3260  24.8169   0.6959 187.7297396 +12.4183215
      3261  26.6175   1.5327 187.7159426 +12.4123732
      3262  26.1318   1.2659 187.7201260 +12.4078175
      3263  25.5584   0.9559 187.6956860 +12.4120063
      3264  24.9934   0.7996 187.7342070 +12.4198147
      3265  24.3274   0.5704 187.7097213 +12.4074334
      3266  26.0114   1.3159 187.7286379 +12.4120132
      3267  22.8480   0.2760 187.7093629 +12.4149810
      3268  23.9053   0.4560 187.7016742 +12.4073339
      3269  25.8663   1.1310 187.7004724 +12.4074788
      3270  22.2326   0.2174 187.7414891 +12.4074683
      3271  25.0620   0.7293 187.6867214 +12.4153826
      3272  25.5602   1.2561 187.7305360 +12.4156060
      3273  26.4781   1.5862 187.6883212 +12.4067594
      3274  21.7881   0.1687 187.6999978 +12.4090442
      3275  23.1064   0.3145 187.7118076 +12.4073176
      3276  26.2984   1.3807 187.7048213 +12.4085994
      3277  26.0266   1.3317 187.6970597 +12.4152657
      3278  23.3627   0.3623 187.7348226 +12.4095320
      3279  22.4451   0.2287 187.6859517 +12.4160681
      3280  24.2377   0.5345 187.7396697 +12.4141308
      3281  26.2945   1.4705 187.6921814 +12.4159268
      3282  24.6021   0.6340 187.7333924 +12.4107480
      3283  25.8933   1.2056 187.7074158 +12.4077851
      3284  22.8078   0.2760 187.7106498 +12.4101239
      3285  23.6082   0.4033 187.7335343 +12.4112920
      3286  25.9017   1.1068 187.7367885 +12.4150906
      3287  23.0484   0.3078 187.7213247 +12.4073421
      3288  23.6563   0.4162 187.7151504 +12.4145790
      3289  23.8861   0.5501 187.6912650 +12.4102497
      3290  24.6585   0.6382 187.7139442 +12.4071337
      3291  25.6565   0.9698 187.6876683 +12.4155835
      3292  26.1782   1.2794 187.7125831 +12.4180766
      3293  26.4728   1.6173 187.7143139 +12.4071541
      3294  25.3563   0.8628 187.6997650 +12.4161289
      3295  23.8753   0.4638 187.7380678 +12.4072614
      3296  25.5918   1.0587 187.7211512 +12.4071442
      3297  25.6544   1.0925 187.7263539 +12.4157600
      3298  23.4077   0.3834 187.7237598 +12.4131794
      3299  24.7428   0.6726 187.7219333 +12.4088125
      3300  22.9992   0.3036 187.7316527 +12.4188538
      3301  26.3982   1.4293 187.7138073 +12.4065815
      3302  25.9851   1.1788 187.6914684 +12.4105642
      3303  23.1510   0.3058 187.7249029 +12.4151729
      3304  22.7276   0.2680 187.6930685 +12.4096523
      3305  24.0812   0.4957 187.7283249 +12.4070924
      3306  26.8004   1.8910 187.6999465 +12.4167115
